M- Sun_Vis
Integration time: 14 ms
Average: 10 scans
Nr of pixels used for smoothing: 0
Data measured with spectrometer serial number: 0608009S1
Wave   ;Sample
[nm]   ;[counts]
277.42;68.500
278.02;74.400
278.61;74.700
279.21;64.400
279.80;73.000
280.40;62.200
280.99;60.800
281.59;62.600
282.18;67.000
282.78;64.700
283.37;67.600
283.97;69.100
284.56;67.700
285.15;62.600
285.75;69.100
286.34;58.100
286.94;65.600
287.53;72.000
288.13;69.400
288.72;69.500
289.31;65.300
289.91;69.000
290.50;64.100
291.10;54.900
291.69;70.100
292.29;66.600
292.88;71.200
293.47;69.000
294.07;65.600
294.66;69.800
295.25;64.700
295.85;66.800
296.44;65.800
297.04;68.700
297.63;67.000
298.22;64.300
298.82;63.300
299.41;69.000
300.00;74.800
300.60;62.300
301.19;64.700
301.79;63.700
302.38;63.100
302.97;70.600
303.57;61.900
304.16;73.400
304.75;73.600
305.35;79.400
305.94;71.500
306.53;76.400
307.13;90.800
307.72;86.700
308.31;85.000
308.90;97.500
309.50;100.90
310.09;111.60
310.68;107.10
311.28;116.10
311.87;118.10
312.46;126.90
313.06;129.00
313.65;140.90
314.24;152.10
314.83;145.50
315.43;166.70
316.02;176.20
316.61;176.60
317.20;189.00
317.80;206.50
318.39;209.30
318.98;236.50
319.57;236.90
320.17;240.70
320.76;250.70
321.35;275.70
321.94;252.20
322.54;261.40
323.13;292.40
323.72;305.30
324.31;332.60
324.90;343.60
325.50;379.30
326.09;387.90
326.68;409.10
327.27;407.30
327.87;418.40
328.46;430.90
329.05;456.30
329.64;456.40
330.23;470.90
330.82;476.60
331.42;467.30
332.01;480.20
332.60;496.80
333.19;511.80
333.78;514.40
334.37;507.00
334.97;514.60
335.56;534.80
336.15;533.90
336.74;551.40
337.33;569.20
337.92;609.50
338.52;636.90
339.11;689.00
339.70;700.20
340.29;731.30
340.88;785.30
341.47;782.00
342.06;778.60
342.65;839.30
343.25;855.80
343.84;892.70
344.43;893.10
345.02;922.20
345.61;1002.1
346.20;1064.8
346.79;1087.1
347.38;1144.5
347.97;1195.7
348.56;1255.1
349.15;1329.2
349.74;1404.6
350.34;1436.0
350.93;1495.9
351.52;1546.0
352.11;1584.1
352.70;1638.2
353.29;1652.8
353.88;1729.0
354.47;1692.2
355.06;1695.5
355.65;1607.4
356.24;1514.2
356.83;1456.5
357.42;1438.1
358.01;1425.8
358.60;1461.7
359.19;1469.1
359.78;1558.0
360.37;1569.5
360.96;1533.6
361.55;1508.2
362.14;1514.6
362.73;1531.3
363.32;1580.2
363.91;1606.8
364.50;1663.8
365.09;1735.1
365.68;1752.7
366.27;1793.5
366.86;1786.3
367.45;1806.8
368.04;1815.8
368.63;1816.9
369.22;1880.6
369.81;1907.8
370.40;1936.0
370.99;1882.9
371.58;1828.0
372.17;1824.3
372.76;1771.0
373.34;1786.0
373.93;1835.8
374.52;1885.0
375.11;2062.6
375.70;2176.3
376.29;2388.4
376.88;2457.6
377.47;2487.3
378.06;2620.5
378.65;2670.9
379.24;2598.2
379.82;2537.4
380.41;2463.5
381.00;2426.9
381.59;2314.1
382.18;2192.6
382.77;2195.0
383.36;2208.5
383.95;2367.4
384.54;2572.2
385.12;2746.3
385.71;2851.7
386.30;2919.1
386.89;2989.3
387.48;3187.5
388.07;3286.9
388.65;3532.9
389.24;3800.9
389.83;3991.0
390.42;4098.8
391.01;3976.8
391.60;3867.0
392.18;3762.7
392.77;3642.3
393.36;3688.4
393.95;3805.8
394.54;4035.7
395.12;4390.7
395.71;4613.7
396.30;4713.6
396.89;4905.2
397.48;5286.7
398.06;6129.2
398.65;6929.2
399.24;7348.0
399.83;7603.5
400.41;7799.5
401.00;7954.0
401.59;8119.4
402.18;8249.2
402.77;8218.0
403.35;8185.9
403.94;8025.7
404.53;8102.6
405.11;8118.3
405.70;8083.2
406.29;8205.5
406.88;8261.7
407.46;8272.3
408.05;8385.6
408.64;8452.2
409.23;8561.6
409.81;8564.3
410.40;8518.9
410.99;8539.4
411.57;8779.7
412.16;8838.2
412.75;8852.9
413.33;8810.6
413.92;8825.5
414.51;8864.8
415.10;8820.5
415.68;8808.0
416.27;8784.6
416.86;8806.1
417.44;8715.3
418.03;8553.8
418.61;8561.1
419.20;8584.3
419.79;8695.6
420.37;8680.0
420.96;8673.7
421.55;8676.1
422.13;8680.5
422.72;8499.4
423.31;8492.3
423.89;8552.9
424.48;8557.1
425.06;8581.5
425.65;8542.4
426.24;8467.6
426.82;8450.3
427.41;8370.2
427.99;8083.9
428.58;7896.0
429.17;7836.7
429.75;7786.0
430.34;7815.1
430.92;8074.6
431.51;8493.1
432.10;8986.5
432.68;9394.5
433.27;9330.0
433.85;9570.3
434.44;9721.6
435.02;9767.4
435.61;10104
436.19;10071
436.78;10143
437.37;10067
437.95;10011
438.54;10078
439.12;10209
439.71;10533
440.29;10785
440.88;10931
441.46;11157
442.05;11435
442.63;11604
443.22;11621
443.80;11698
444.39;11703
444.97;11912
445.56;12081
446.14;12142
446.73;12405
447.31;12769
447.90;13062
448.48;13356
449.07;13485
449.65;13695
450.23;13858
450.82;13982
451.40;14012
451.99;13878
452.57;13831
453.16;13802
453.74;13947
454.33;14180
454.91;14372
455.49;14467
456.08;14663
456.66;14814
457.25;14907
457.83;14929
458.41;14831
459.00;14866
459.58;15057
460.17;15211
460.75;15410
461.33;15471
461.92;15646
462.50;15608
463.09;15547
463.67;15522
464.25;15395
464.84;15292
465.42;15264
466.00;15158
466.59;15152
467.17;14995
467.75;14896
468.34;14863
468.92;14767
469.50;14652
470.09;14612
470.67;14441
471.25;14383
471.84;14455
472.42;14508
473.00;14392
473.59;14187
474.17;14002
474.75;13980
475.34;13903
475.92;13820
476.50;13674
477.08;13678
477.67;13562
478.25;13568
478.83;13582
479.42;13531
480.00;13515
480.58;13478
481.16;13371
481.75;13181
482.33;13033
482.91;12974
483.49;12624
484.08;12355
484.66;12018
485.24;11750
485.82;11562
486.40;11318
486.99;11346
487.57;11719
488.15;11914
488.73;12060
489.32;12081
489.90;12036
490.48;12015
491.06;11873
491.64;11806
492.22;11747
492.81;11694
493.39;11892
493.97;11993
494.55;12023
495.13;12070
495.72;11976
496.30;11853
496.88;11755
497.46;11817
498.04;11685
498.62;11499
499.20;11416
499.79;11391
500.37;11398
500.95;11221
501.53;11176
502.11;11272
502.69;11306
503.27;11339
503.85;11452
504.44;11552
505.02;11590
505.60;11722
506.18;11778
506.76;11749
507.34;11678
507.92;11750
508.50;11711
509.08;11843
509.66;11932
510.24;11968
510.82;11967
511.40;11978
511.99;11981
512.57;11959
513.15;11863
513.73;11827
514.31;11814
514.89;11685
515.47;11647
516.05;11473
516.63;11333
517.21;11230
517.79;11278
518.37;11656
518.95;11916
519.53;12098
520.11;12387
520.69;12396
521.27;12416
521.85;12536
522.43;12611
523.01;12620
523.59;12668
524.17;12744
524.75;12651
525.33;12564
525.91;12504
526.49;12431
527.07;12449
527.65;12569
528.23;12844
528.80;13149
529.38;13192
529.96;13247
530.54;13259
531.12;13263
531.70;13266
532.28;13266
532.86;13172
533.44;13205
534.02;13377
534.60;13460
535.18;13480
535.76;13497
536.33;13580
536.91;13513
537.49;13429
538.07;13436
538.65;13397
539.23;13341
539.81;13302
540.39;13298
540.96;13306
541.54;13445
542.12;13544
542.70;13659
543.28;13694
543.86;13760
544.43;13828
545.01;13879
545.59;13850
546.17;13853
546.75;13816
547.33;13877
547.90;13829
548.48;13829
549.06;13911
549.64;13864
550.22;13839
550.79;13807
551.37;13831
551.95;13792
552.53;13819
553.11;13819
553.68;13816
554.26;13788
554.84;13772
555.42;13690
555.99;13563
556.57;13462
557.15;13430
557.73;13295
558.30;13306
558.88;13232
559.46;13174
560.04;13181
560.61;13397
561.19;13376
561.77;13464
562.35;13363
562.92;13300
563.50;13231
564.08;13248
564.65;13122
565.23;13111
565.81;12920
566.38;12820
566.96;12730
567.54;12799
568.11;12726
568.69;12535
569.27;12255
569.84;12294
570.42;12270
571.00;12257
571.57;12257
572.15;12227
572.73;12279
573.30;12185
573.88;12067
574.46;12016
575.03;11866
575.61;11794
576.18;11681
576.76;11696
577.34;11617
577.91;11541
578.49;11515
579.07;11484
579.64;11474
580.22;11603
580.79;11499
581.37;11474
581.94;11499
582.52;11497
583.10;11376
583.67;11225
584.25;11073
584.82;11060
585.40;10939
585.97;10743
586.55;10588
587.12;10367
587.70;10179
588.28;9967.7
588.85;9789.8
589.43;9624.0
590.00;9659.1
590.58;9767.2
591.15;9856.1
591.73;9804.9
592.30;9697.4
592.88;9691.6
593.45;9679.3
594.03;9615.5
594.60;9527.2
595.18;9472.2
595.75;9493.0
596.33;9344.5
596.90;9367.5
597.48;9252.2
598.05;9284.5
598.63;9193.2
599.20;9100.8
599.77;9014.3
600.35;9042.1
600.92;8905.4
601.50;8930.1
602.07;8928.0
602.65;8828.3
603.22;8828.0
603.79;8829.8
604.37;8850.4
604.94;8883.8
605.52;8830.2
606.09;8788.4
606.67;8746.2
607.24;8724.1
607.81;8587.3
608.39;8580.2
608.96;8479.6
609.54;8414.4
610.11;8383.7
610.68;8390.8
611.26;8248.0
611.83;8231.2
612.40;8251.4
612.98;8146.7
613.55;8170.5
614.12;8099.5
614.70;8042.8
615.27;7908.5
615.84;7913.3
616.42;7844.0
616.99;7844.2
617.56;7845.3
618.14;7868.6
618.71;7900.4
619.28;7873.9
619.86;7934.9
620.43;7917.6
621.00;7882.0
621.58;7757.5
622.15;7744.5
622.72;7658.4
623.30;7615.0
623.87;7521.7
624.44;7470.2
625.01;7421.3
625.59;7375.1
626.16;7412.4
626.73;7412.0
627.30;7295.1
627.88;7219.4
628.45;7032.4
629.02;6997.2
629.59;7053.3
630.17;6955.8
630.74;6951.5
631.31;6931.0
631.88;6987.1
632.46;6905.5
633.03;6999.3
633.60;7003.1
634.17;6996.4
634.74;6973.7
635.32;7062.1
635.89;7064.6
636.46;7089.8
637.03;7142.7
637.60;7135.0
638.18;7121.9
638.75;7064.2
639.32;7032.3
639.89;7084.5
640.46;7107.5
641.03;7072.5
641.61;7052.5
642.18;7066.6
642.75;7044.3
643.32;6947.1
643.89;6926.6
644.46;6794.2
645.03;6786.1
645.60;6743.0
646.18;6655.0
646.75;6594.0
647.32;6504.0
647.89;6449.3
648.46;6418.1
649.03;6426.4
649.60;6459.7
650.17;6455.7
650.74;6464.9
651.31;6606.0
651.89;6591.1
652.46;6573.1
653.03;6517.5
653.60;6470.8
654.17;6306.4
654.74;6186.7
655.31;6066.5
655.88;6045.4
656.45;6063.7
657.02;6050.5
657.59;6269.3
658.16;6507.8
658.73;6553.2
659.30;6591.1
659.87;6605.0
660.44;6654.1
661.01;6632.5
661.58;6651.2
662.15;6734.0
662.72;6677.5
663.29;6693.1
663.86;6618.6
664.43;6628.0
665.00;6557.8
665.57;6566.0
666.14;6512.5
666.71;6486.4
667.28;6403.2
667.85;6349.6
668.42;6307.6
668.99;6246.7
669.56;6173.0
670.13;6119.6
670.70;6035.8
671.27;6033.8
671.84;5923.9
672.41;5910.9
672.98;5916.6
673.54;5939.3
674.11;5909.1
674.68;5912.0
675.25;5964.3
675.82;5949.9
676.39;5981.5
676.96;6033.3
677.53;6041.9
678.10;6102.0
678.67;6189.5
679.23;6189.7
679.80;6240.1
680.37;6219.2
680.94;6312.3
681.51;6411.8
682.08;6414.1
682.65;6382.1
683.21;6401.6
683.78;6413.0
684.35;6373.5
684.92;6277.7
685.49;6173.8
686.06;6084.6
686.62;5874.6
687.19;5764.4
687.76;5688.9
688.33;5666.8
688.90;5664.6
689.46;5756.5
690.03;5761.7
690.60;5695.3
691.17;5677.7
691.74;5666.3
692.30;5594.7
692.87;5482.9
693.44;5400.8
694.01;5439.9
694.57;5471.0
695.14;5462.1
695.71;5390.7
696.28;5364.0
696.84;5365.6
697.41;5366.2
697.98;5230.1
698.55;5149.9
699.11;4959.5
699.68;4887.9
700.25;4768.7
700.82;4722.3
701.38;4615.7
701.95;4582.0
702.52;4554.5
703.08;4491.4
703.65;4486.0
704.22;4491.8
704.78;4439.2
705.35;4406.6
705.92;4357.9
706.48;4367.1
707.05;4284.5
707.62;4238.8
708.18;4198.3
708.75;4148.6
709.32;4109.1
709.88;4039.0
710.45;4024.2
711.02;3976.4
711.58;3965.5
712.15;3864.0
712.72;3841.3
713.28;3814.1
713.85;3715.6
714.41;3633.1
714.98;3539.6
715.55;3367.7
716.11;3188.8
716.68;3023.6
717.24;2822.0
717.81;2706.8
718.38;2647.4
718.94;2677.6
719.51;2700.3
720.07;2801.6
720.64;2838.5
721.20;2871.0
721.77;2911.2
722.33;2866.5
722.90;2761.1
723.47;2654.8
724.03;2628.1
724.60;2571.5
725.16;2553.5
725.73;2561.1
726.29;2560.9
726.86;2521.4
727.42;2489.4
727.99;2504.4
728.55;2474.7
729.12;2488.8
729.68;2441.1
730.25;2451.1
730.81;2476.6
731.38;2495.2
731.94;2560.5
732.51;2590.5
733.07;2596.4
733.64;2616.2
734.20;2592.1
734.76;2607.5
735.33;2555.5
735.89;2547.8
736.46;2496.6
737.02;2525.3
737.59;2499.4
738.15;2499.0
738.72;2453.1
739.28;2407.4
739.84;2437.5
740.41;2431.4
740.97;2406.1
741.54;2402.1
742.10;2388.0
742.66;2388.3
743.23;2344.5
743.79;2345.4
744.35;2310.5
744.92;2273.6
745.48;2255.4
746.05;2238.2
746.61;2239.0
747.17;2183.7
747.74;2169.0
748.30;2148.0
748.86;2139.4
749.43;2085.5
749.99;2059.3
750.55;2049.6
751.12;2032.1
751.68;1986.8
752.24;1965.4
752.81;1957.9
753.37;1928.8
753.93;1881.3
754.50;1901.2
755.06;1871.0
755.62;1848.7
756.18;1799.3
756.75;1775.8
757.31;1610.7
757.87;1460.6
758.44;1254.7
759.00;1068.1
759.56;891.20
760.12;744.10
760.69;616.60
761.25;650.50
761.81;706.00
762.37;784.90
762.94;827.40
763.50;840.90
764.06;885.40
764.62;964.70
765.18;1060.1
765.75;1131.3
766.31;1202.8
766.87;1238.2
767.43;1289.4
767.99;1331.3
768.56;1325.1
769.12;1312.7
769.68;1321.1
770.24;1322.9
770.80;1315.9
771.36;1311.4
771.93;1297.3
772.49;1306.5
773.05;1283.5
773.61;1280.8
774.17;1271.0
774.73;1252.4
775.29;1250.2
775.86;1260.6
776.42;1257.7
776.98;1261.1
777.54;1222.8
778.10;1193.8
778.66;1193.9
779.22;1207.7
779.78;1181.1
780.34;1181.4
780.91;1176.5
781.47;1166.8
782.03;1152.9
782.59;1169.7
783.15;1152.7
783.71;1140.3
784.27;1126.9
784.83;1127.8
785.39;1113.6
785.95;1105.3
786.51;1104.3
787.07;1074.9
787.63;1081.7
788.19;1084.0
788.75;1059.3
789.31;1056.6
789.87;1024.6
790.43;1035.9
790.99;1022.9
791.55;1020.7
792.11;1018.3
792.67;1012.1
793.23;1008.5
793.79;1006.6
794.35;999.50
794.91;982.30
795.47;985.10
796.03;969.80
796.59;968.30
797.15;959.40
797.71;950.70
798.27;973.10
798.83;953.90
799.39;944.80
799.95;934.30
800.51;920.30
801.07;914.70
801.63;922.60
802.19;911.40
802.75;900.60
803.30;906.10
803.86;881.70
804.42;888.00
804.98;878.60
805.54;870.90
806.10;868.40
806.66;859.20
807.22;855.00
807.78;829.20
808.33;825.00
808.89;818.20
809.45;810.10
810.01;784.80
810.57;759.30
811.13;749.10
811.69;748.70
812.24;703.90
812.80;688.70
813.36;667.40
813.92;628.40
814.48;612.60
815.03;604.40
815.59;591.80
816.15;586.60
816.71;586.00
817.27;564.60
817.82;569.00
818.38;592.00
818.94;603.90
819.50;603.30
820.06;602.00
820.61;603.10
821.17;607.10
821.73;572.10
822.29;583.60
822.84;554.50
823.40;562.30
823.96;594.90
824.52;628.30
825.07;628.00
825.63;626.80
826.19;625.80
826.74;595.00
827.30;596.20
827.86;583.80
828.42;576.60
828.97;577.50
829.53;585.00
830.09;572.20
830.64;584.80
831.20;579.10
831.76;582.10
832.31;596.10
832.87;592.40
833.43;572.10
833.98;588.70
834.54;609.90
835.10;615.70
835.65;623.60
836.21;611.40
836.77;628.60
837.32;625.50
837.88;620.60
838.43;626.40
838.99;635.10
839.55;622.70
840.10;638.50
840.66;606.70
841.21;607.40
841.77;613.50
842.33;621.10
842.88;591.40
843.44;617.80
843.99;620.30
844.55;612.50
845.11;602.30
845.66;593.50
846.22;607.30
846.77;603.30
847.33;606.00
847.88;584.40
848.44;590.60
848.99;586.80
849.55;577.40
850.10;567.90
850.66;588.70
851.21;561.60
851.77;565.70
852.32;553.20
852.88;532.80
853.43;541.70
853.99;527.40
854.54;525.00
855.10;545.00
855.65;551.60
856.21;569.60
856.76;559.00
857.32;574.30
857.87;563.20
858.43;562.10
858.98;566.70
859.54;564.30
860.09;552.50
860.64;548.80
861.20;547.40
861.75;547.50
862.31;553.50
862.86;549.40
863.41;538.20
863.97;528.50
864.52;507.70
865.08;513.00
865.63;517.20
866.18;492.60
866.74;495.80
867.29;504.40
867.85;501.40
868.40;519.90
868.95;517.30
869.51;509.10
870.06;517.90
870.61;515.70
871.17;513.20
871.72;530.20
872.27;496.90
872.83;501.90
873.38;507.10
873.93;501.60
874.49;503.70
875.04;502.80
875.59;503.20
876.15;504.60
876.70;513.80
877.25;503.40
877.80;507.00
878.36;486.10
878.91;501.90
879.46;477.10
880.02;486.70
880.57;499.60
881.12;500.10
881.67;497.90
882.23;502.20
882.78;481.80
883.33;500.60
883.88;494.20
884.44;495.10
884.99;478.50
885.54;482.90
886.09;488.10
886.64;481.40
887.20;483.20
887.75;485.90
888.30;482.60
888.85;487.30
889.40;470.60
889.96;462.20
890.51;465.40
891.06;465.60
891.61;445.80
892.16;451.10
892.71;436.70
893.27;401.50
893.82;395.80
894.37;388.30
894.92;372.10
895.47;370.50
896.02;345.80
896.57;349.30
897.13;320.80
897.68;324.40
898.23;320.30
898.78;315.90
899.33;303.50
899.88;318.80
900.43;331.40
900.98;343.50
901.53;336.20
902.08;349.50
902.63;359.70
903.19;369.50
903.74;386.60
904.29;376.10
904.84;365.60
905.39;356.40
905.94;327.00
906.49;323.10
907.04;305.30
907.59;302.50
908.14;297.10
908.69;312.10
909.24;309.50
909.79;313.10
910.34;312.80
910.89;307.20
911.44;302.40
911.99;297.30
912.54;278.80
913.09;295.70
913.64;287.40
914.19;281.00
914.74;281.40
915.29;286.00
915.84;277.00
916.39;294.40
916.94;283.10
917.49;298.50
918.04;301.50
918.58;313.20
919.13;317.40
919.68;336.40
920.23;329.30
920.78;328.20
921.33;314.40
921.88;313.50
922.43;310.50
922.98;295.60
923.53;295.00
924.08;299.90
924.62;295.40
925.17;297.10
925.72;280.60
926.27;276.00
926.82;263.10
927.37;240.60
927.92;224.20
928.46;195.60
929.01;182.90
929.56;166.60
930.11;145.40
930.66;128.40
931.21;118.40
931.75;97.200
932.30;81.700
932.85;76.600
933.40;79.700
933.95;80.200
934.49;64.200
935.04;73.500
935.59;76.600
936.14;84.900
936.69;91.500
937.23;110.40
937.78;109.70
938.33;121.00
938.88;123.60
939.42;139.80
939.97;146.30
940.52;130.10
941.07;116.70
941.61;103.30
942.16;107.40
942.71;99.300
943.25;98.100
943.80;88.100
944.35;92.800
944.90;87.100
945.44;91.000
945.99;106.30
946.54;91.300
947.08;102.80
947.63;93.800
948.18;100.50
948.72;102.10
949.27;105.80
949.82;88.400
950.36;98.800
950.91;108.50
951.46;109.20
952.00;97.700
952.55;92.400
953.09;100.000
953.64;89.200
954.19;103.00
954.73;101.00
955.28;101.50
955.82;101.70
956.37;101.10
956.92;96.600
957.46;106.50
958.01;116.60
958.55;100.30
959.10;93.000
959.65;115.50
960.19;115.70
960.74;113.20
961.28;116.20
961.83;112.10
962.37;120.00
962.92;122.20
963.46;124.70
964.01;124.50
964.55;122.10
965.10;127.10
965.64;125.40
966.19;136.50
966.73;143.80
967.28;155.40
967.82;152.30
968.37;161.50
968.91;161.00
969.46;167.20
970.00;161.30
970.55;154.60
971.09;159.90
971.64;151.20
972.18;163.70
972.73;144.00
973.27;141.90
973.82;128.50
974.36;126.90
974.90;138.50
975.45;146.00
975.99;133.20
976.54;137.50
977.08;134.80
977.62;143.90
978.17;135.30
978.71;134.00
979.26;139.20
979.80;145.20
980.34;144.60
980.89;133.00
981.43;141.10
981.97;141.50
982.52;141.70
983.06;140.90
983.61;144.20
984.15;152.50
984.69;145.00
985.24;144.50
985.78;146.90
986.32;153.20
986.87;144.90
987.41;139.70
987.95;145.50
988.49;147.00
989.04;138.70
989.58;141.70
990.12;140.20
990.67;134.70
991.21;134.60
991.75;134.50
992.29;124.30
992.84;134.10
993.38;126.20
993.92;132.80
994.46;125.40
995.01;128.90
995.55;127.30
996.09;123.20
996.63;127.90
997.18;123.20
997.72;128.40
998.26;116.80
998.80;123.40
999.34;115.00
999.89;119.00
1000.43;116.70
1000.97;122.20
1001.51;116.20
1002.05;110.20
1002.60;101.20
1003.14;99.800
1003.68;97.100
1004.22;105.10
1004.76;99.200
1005.30;105.10
1005.84;102.40
1006.39;89.500
1006.93;92.000
1007.47;89.700
1008.01;98.800
1008.55;95.700
1009.09;90.300
1009.63;90.000
1010.17;96.400
1010.72;87.700
1011.26;85.300
1011.80;78.700
1012.34;83.900
1012.88;87.300
1013.42;86.500
1013.96;77.700
1014.50;74.200
1015.04;90.400
1015.58;95.000
1016.12;79.700
1016.66;77.200
1017.20;74.500
1017.74;74.600
1018.28;64.400
1018.82;64.800
1019.36;67.400
1019.90;72.500
1020.44;73.200
1020.98;66.700
1021.52;63.700
1022.06;68.300
1022.60;67.100
1023.14;53.800
1023.68;59.300
1024.22;66.400
1024.76;62.100
1025.30;59.100
1025.84;51.500
1026.38;54.700
1026.92;62.400
1027.46;52.000
1028.00;57.400
1028.54;55.200
1029.08;56.100
1029.62;53.100
1030.16;50.300
1030.70;49.800
1031.23;54.900
1031.77;47.900
1032.31;51.000
1032.85;43.900
1033.39;49.800
1033.93;46.300
1034.47;36.800
1035.01;46.200
1035.54;56.100
1036.08;44.900
1036.62;45.100
1037.16;49.700
1037.70;47.800
1038.24;39.400
1038.78;38.800
1039.31;40.500
1039.85;39.300
1040.39;32.700
1040.93;38.800
1041.47;32.000
1042.00;32.700
1042.54;34.400
1043.08;33.300
1043.62;35.900
1044.16;38.700
1044.69;32.500
1045.23;27.000
1045.77;30.900
1046.31;27.000
1046.84;32.000
1047.38;26.000
1047.92;24.300
1048.46;32.400
1048.99;27.700
1049.53;26.400
1050.07;25.700
1050.61;24.300
1051.14;19.400
1051.68;23.500
1052.22;21.400
1052.75;23.000
1053.29;24.400
1053.83;18.800
1054.36;23.300
1054.90;23.400
1055.44;21.000
1055.97;18.000
1056.51;14.900
1057.05;24.300
1057.58;17.600
1058.12;15.200
1058.66;13.400
1059.19;8.5000
1059.73;12.300
1060.27;14.700
1060.80;16.200
1061.34;19.200
1061.87;15.800
1062.41;8.6000
1062.95;16.900
1063.48;19.000
1064.02;18.100
1064.55;5.9000
1065.09;7.3000
1065.63;16.700
1066.16;13.700
1066.70;8.0000
1067.23;9.1000
1067.77;10.400
1068.30;12.300
1068.84;11.900
1069.37;13.100
1069.91;14.800
1070.44;19.100
1070.98;12.500
1071.52;13.500
1072.05;9.7000
1072.59;17.100
1073.12;6.6000
1073.66;3.0000
1074.19;12.800
1074.73;6.3000
1075.26;7.6000
1075.79;8.7000
1076.33;9.6000
1076.86;13.900
1077.40;12.200
1077.93;7.9000
1078.47;10.700
1079.00;16.500
1079.54;6.8000
1080.07;10.600
1080.60;9.5000
1081.14;14.900
1081.67;3.7000
1082.21;5.7000
1082.74;6.4000
1083.28;14.000
1083.81;6.9000
1084.34;13.100
1084.88;9.0000
1085.41;9.2000
1085.94;7.7000
1086.48;4.9000
1087.01;8.8000
1087.55;13.100
1088.08;5.3000
1088.61;3.7000
1089.15;2.2000
1089.68;5.3000
1090.21;5.2000
1090.75;-3.4000
1091.28;7.8000
1091.81;3.4000
1092.35;6.7000
1092.88;8.6000
1093.41;6.2000
1093.94;7.1000
1094.48;4.6000
1095.01;7.6000
1095.54;5.6000
1096.08;13.500
1096.61;2.8000
1097.14;1.8000
1097.67;-8.1000
1098.21;8.0000
1098.74;1.8000
1099.27;-4.3000
1099.80;3.1000
1100.34;14.100
