M- Sun_Vis_BG
Integration time: 14 ms
Average: 10 scans
Nr of pixels used for smoothing: 0
Data measured with spectrometer serial number: 0608009S1
Wave   ;Sample
[nm]   ;[counts]
277.42;1.7000
278.02;3.5500
278.61;-0.7000
279.21;6.2500
279.80;-0.1000
280.40;-6.0500
280.99;4.0000
281.59;-3.1500
282.18;1.3000
282.78;-11.150
283.37;5.7000
283.97;-10.350
284.56;0.7000
285.15;-1.6500
285.75;8.4000
286.34;2.4500
286.94;0.8000
287.53;1.0500
288.13;1.9000
288.72;-3.1500
289.31;6.8000
289.91;-1.1500
290.50;-0.1000
291.10;1.2500
291.69;4.4000
292.29;0.4500
292.88;-0.2000
293.47;1.7500
294.07;-1.7000
294.66;2.1500
295.25;-4.2000
295.85;-2.6500
296.44;4.3000
297.04;-0.3500
297.63;-4.8000
298.22;0.8500
298.82;1.7000
299.41;-2.3500
300.00;11.100
300.60;-9.4500
301.19;-0.6000
301.79;-3.0500
302.38;-4.5000
302.97;-8.2500
303.57;-3.6000
304.16;-8.2500
304.75;-0.1000
305.35;-2.0500
305.94;-3.3000
306.53;1.3500
307.13;-1.7000
307.72;-1.9500
308.31;-5.2000
308.90;-0.9500
309.50;1.5000
310.09;5.5500
310.68;-8.4000
311.28;-2.5500
311.87;-1.6000
312.46;-4.7500
313.06;4.4000
313.65;-4.9500
314.24;-6.1000
314.83;-4.8500
315.43;-1.9000
316.02;-1.8500
316.61;-5.4000
317.20;-4.7500
317.80;5.4000
318.39;-5.5500
318.98;0.5000
319.57;-3.5500
320.17;0
320.76;2.2500
321.35;-4.8000
321.94;-5.9500
322.54;4.1000
323.13;3.4500
323.72;-2.0000
324.31;-6.4500
324.90;-4.8000
325.50;7.0500
326.09;4.4000
326.68;-4.4500
327.27;3.0000
327.87;-1.5500
328.46;2.6000
329.05;-2.5500
329.64;1.5000
330.23;-1.2500
330.82;-6.8000
331.42;-3.6500
332.01;7.8000
332.60;-2.1500
333.19;5.2000
333.78;-1.2500
334.37;-4.7000
334.97;-1.5500
335.56;-2.5000
336.15;-2.2500
336.74;-8.4000
337.33;1.0500
337.92;0.1000
338.52;-6.1500
339.11;1.1000
339.70;4.5500
340.29;-3.8000
340.88;1.3500
341.47;6.2000
342.06;-2.7500
342.65;0.3000
343.25;4.3500
343.84;-5.8000
344.43;-4.2500
345.02;-4.5000
345.61;-9.6500
346.20;-1.9000
346.79;-0.8500
347.38;4.8000
347.97;-5.5500
348.56;4.6000
349.15;3.2500
349.74;-7.3000
350.34;0.2500
350.93;6.9000
351.52;-5.0500
352.11;3.0000
352.70;-9.6500
353.29;-0.3000
353.88;2.3500
354.47;-0.6000
355.06;-7.4500
355.65;-1.4000
356.24;-2.6500
356.83;1.2000
357.42;-6.6500
358.01;0.7000
358.60;-0.05000
359.19;-5.2000
359.78;1.2500
360.37;0.5000
360.96;-1.8500
361.55;6.2000
362.14;-2.6500
362.73;-3.0000
363.32;-0.05000
363.91;-5.5000
364.50;0.9500
365.09;-2.0000
365.68;-3.2500
366.27;-3.3000
366.86;-5.3500
367.45;-1.3000
368.04;0.3500
368.63;-0.4000
369.22;-0.4500
369.81;-0.3000
370.40;-0.05000
370.99;-0.4000
371.58;-0.3500
372.17;-2.1000
372.76;1.2500
373.34;3.6000
373.93;-1.4500
374.52;0.4000
375.11;0.6500
375.70;1.0000
376.29;-5.6500
376.88;0.1000
377.47;5.7500
378.06;-2.6000
378.65;3.0500
379.24;-0.6000
379.82;3.3500
380.41;4.9000
381.00;-3.6500
381.59;-2.8000
382.18;-0.3500
382.77;-0.3000
383.36;-5.6500
383.95;-2.7000
384.54;-1.5500
385.12;5.0000
385.71;-2.5500
386.30;-1.9000
386.89;2.1500
387.48;0.6000
388.07;-1.0500
388.65;-5.9000
389.24;2.8500
389.83;6.6000
390.42;1.5500
391.01;13.500
391.60;15.050
392.18;8.7000
392.77;-3.8500
393.36;6.2000
393.95;6.8500
394.54;-1.2000
395.12;-1.9500
395.71;4.2000
396.30;0.8500
396.89;1.6000
397.48;8.2500
398.06;2.3000
398.65;3.1500
399.24;13.000
399.83;-1.4500
400.41;13.000
401.00;6.6500
401.59;10.300
402.18;6.3500
402.77;12.300
403.35;5.2500
403.94;11.900
404.53;5.2500
405.11;10.100
405.70;4.5500
406.29;19.800
406.88;6.5500
407.46;5.3000
408.05;10.050
408.64;14.300
409.23;9.3500
409.81;12.600
410.40;6.4500
410.99;10.0000
411.57;13.550
412.16;19.600
412.75;4.5500
413.33;7.5000
413.92;2.7500
414.51;12.100
415.10;7.9500
415.68;14.800
416.27;7.4500
416.86;1.5000
417.44;10.650
418.03;15.000
418.61;4.6500
419.20;17.000
419.79;12.550
420.37;7.8000
420.96;12.550
421.55;15.900
422.13;9.3500
422.72;15.600
423.31;5.9500
423.89;12.100
424.48;0.2500
425.06;17.400
425.65;14.350
426.24;9.1000
426.82;3.1500
427.41;7.7000
427.99;10.450
428.58;13.200
429.17;10.050
429.75;7.7000
430.34;16.950
430.92;10.700
431.51;8.7500
432.10;12.400
432.68;4.3500
433.27;14.000
433.85;15.650
434.44;17.700
435.02;5.9500
435.61;10.700
436.19;19.750
436.78;13.500
437.37;10.450
437.95;18.500
438.54;11.250
439.12;8.8000
439.71;27.250
440.29;14.700
440.88;19.050
441.46;23.200
442.05;12.950
442.63;16.300
443.22;4.1500
443.80;16.600
444.39;17.750
444.97;11.600
445.56;10.050
446.14;15.500
446.73;21.150
447.31;19.700
447.90;14.750
448.48;20.500
449.07;26.350
449.65;19.800
450.23;23.150
450.82;21.900
451.40;20.350
451.99;29.700
452.57;20.550
453.16;22.600
453.74;18.450
454.33;18.500
454.91;28.850
455.49;18.700
456.08;23.850
456.66;31.500
457.25;23.350
457.83;18.900
458.41;26.950
459.00;19.100
459.58;24.150
460.17;29.400
460.75;19.350
461.33;32.200
461.92;20.150
462.50;25.800
463.09;18.350
463.67;29.100
464.25;24.650
464.84;22.700
465.42;23.150
466.00;24.800
466.59;31.350
467.17;20.600
467.75;33.750
468.34;22.600
468.92;24.450
469.50;33.500
470.09;20.950
470.67;26.900
471.25;16.150
471.84;22.400
472.42;22.050
473.00;20.400
473.59;21.350
474.17;20.400
474.75;25.550
475.34;28.700
475.92;19.650
476.50;15.600
477.08;26.350
477.67;17.100
478.25;23.750
478.83;32.600
479.42;19.850
480.00;36.900
480.58;18.850
481.16;19.700
481.75;25.850
482.33;24.800
482.91;24.850
483.49;27.500
484.08;23.550
484.66;18.800
485.24;17.150
485.82;18.300
486.40;12.750
486.99;13.700
487.57;18.050
488.15;24.000
488.73;24.050
489.32;23.600
489.90;28.150
490.48;27.700
491.06;20.850
491.64;17.700
492.22;19.650
492.81;28.500
493.39;20.050
493.97;17.700
494.55;20.150
495.13;24.300
495.72;20.350
496.30;20.600
496.88;21.950
497.46;25.900
498.04;17.250
498.62;28.800
499.20;24.150
499.79;27.800
500.37;21.350
500.95;27.700
501.53;27.850
502.11;18.700
502.69;26.450
503.27;26.800
503.85;22.450
504.44;22.300
505.02;19.050
505.60;19.400
506.18;24.250
506.76;25.500
507.34;20.350
507.92;30.400
508.50;17.350
509.08;29.800
509.66;21.950
510.24;33.100
510.82;25.150
511.40;27.800
511.99;29.350
512.57;24.800
513.15;21.650
513.73;27.900
514.31;18.650
514.89;25.800
515.47;23.650
516.05;22.100
516.63;24.550
517.21;28.500
517.79;25.550
518.37;33.200
518.95;33.450
519.53;35.100
520.11;29.750
520.69;30.900
521.27;33.050
521.85;27.200
522.43;29.550
523.01;30.500
523.59;23.450
524.17;31.600
524.75;26.150
525.33;23.200
525.91;23.950
526.49;30.300
527.07;25.650
527.65;34.800
528.23;33.750
528.80;36.900
529.38;40.150
529.96;37.100
530.54;26.150
531.12;38.100
531.70;26.050
532.28;38.800
532.86;22.650
533.44;37.100
534.02;34.350
534.60;32.000
535.18;39.750
535.76;34.900
536.33;31.950
536.91;44.100
537.49;28.350
538.07;37.000
538.65;33.850
539.23;38.500
539.81;36.350
540.39;32.200
540.96;34.150
541.54;41.500
542.12;35.250
542.70;36.200
543.28;38.650
543.86;35.800
544.43;42.650
545.01;43.300
545.59;36.050
546.17;44.600
546.75;44.650
547.33;42.400
547.90;47.850
548.48;43.100
549.06;39.450
549.64;44.100
550.22;45.850
550.79;45.600
551.37;35.150
551.95;40.000
552.53;47.550
553.11;44.900
553.68;41.450
554.26;38.700
554.84;43.950
555.42;45.600
555.99;42.050
556.57;40.800
557.15;49.450
557.73;38.600
558.30;39.150
558.88;39.700
559.46;38.550
560.04;44.800
560.61;43.150
561.19;46.700
561.77;45.750
562.35;41.300
562.92;38.150
563.50;44.300
564.08;41.650
564.65;47.200
565.23;35.050
565.81;44.600
566.38;44.350
566.96;40.200
567.54;35.550
568.11;38.400
568.69;37.350
569.27;40.900
569.84;36.350
570.42;41.900
571.00;43.150
571.57;42.600
572.15;36.050
572.73;36.200
573.30;40.450
573.88;51.500
574.46;34.450
575.03;35.900
575.61;48.050
576.18;36.400
576.76;38.050
577.34;36.200
577.91;32.650
578.49;44.100
579.07;38.350
579.64;47.400
580.22;40.250
580.79;42.200
581.37;40.950
581.94;42.100
582.52;43.250
583.10;38.000
583.67;34.550
584.25;36.100
584.82;45.650
585.40;36.200
585.97;32.250
586.55;40.400
587.12;27.050
587.70;39.800
588.28;37.450
588.85;35.900
589.43;34.750
590.00;44.100
590.58;32.450
591.15;33.700
591.73;42.450
592.30;33.300
592.88;27.050
593.45;27.800
594.03;34.750
594.60;35.600
595.18;30.250
595.75;35.200
596.33;34.350
596.90;34.000
597.48;35.650
598.05;39.100
598.63;36.650
599.20;41.200
599.77;36.550
600.35;27.000
600.92;37.550
601.50;33.500
602.07;26.950
602.65;30.700
603.22;38.150
603.79;33.500
604.37;35.950
604.94;31.500
605.52;29.550
606.09;33.000
606.67;33.950
607.24;34.300
607.81;32.550
608.39;34.500
608.96;36.150
609.54;36.600
610.11;32.250
610.68;42.000
611.26;26.850
611.83;33.200
612.40;25.850
612.98;34.200
613.55;30.450
614.12;39.700
614.70;32.250
615.27;38.900
615.84;38.250
616.42;42.000
616.99;29.350
617.56;30.600
618.14;33.050
618.71;35.800
619.28;38.750
619.86;28.900
620.43;30.050
621.00;35.000
621.58;27.350
622.15;32.500
622.72;42.250
623.30;39.200
623.87;24.750
624.44;32.300
625.01;25.250
625.59;33.700
626.16;25.550
626.73;31.900
627.30;28.650
627.88;35.100
628.45;30.650
629.02;29.900
629.59;30.550
630.17;35.800
630.74;32.850
631.31;34.100
631.88;31.950
632.46;33.800
633.03;35.950
633.60;32.000
634.17;31.850
634.74;36.800
635.32;27.650
635.89;35.900
636.46;21.750
637.03;33.200
637.60;31.550
638.18;31.100
638.75;25.950
639.32;34.500
639.89;31.350
640.46;35.400
641.03;40.450
641.61;34.300
642.18;35.850
642.75;33.200
643.32;35.850
643.89;25.100
644.46;36.050
645.03;29.900
645.60;32.150
646.18;37.000
646.75;38.050
647.32;35.700
647.89;32.550
648.46;28.300
649.03;40.450
649.60;37.300
650.17;28.950
650.74;36.700
651.31;30.150
651.89;40.400
652.46;39.350
653.03;32.400
653.60;36.550
654.17;30.900
654.74;36.550
655.31;37.900
655.88;33.750
656.45;30.500
657.02;31.250
657.59;34.700
658.16;35.550
658.73;33.500
659.30;32.950
659.87;31.000
660.44;39.950
661.01;36.700
661.58;42.850
662.15;34.800
662.72;44.950
663.29;29.800
663.86;41.950
664.43;49.400
665.00;36.550
665.57;44.400
666.14;30.250
666.71;37.000
667.28;39.250
667.85;44.900
668.42;37.450
668.99;33.500
669.56;31.250
670.13;45.700
670.70;28.550
671.27;31.500
671.84;50.250
672.41;37.400
672.98;34.650
673.54;42.800
674.11;40.150
674.68;39.500
675.25;35.050
675.82;44.200
676.39;41.250
676.96;45.200
677.53;40.350
678.10;39.400
678.67;46.750
679.23;47.100
679.80;41.350
680.37;37.600
680.94;53.550
681.51;36.500
682.08;44.450
682.65;52.800
683.21;46.450
683.78;51.700
684.35;47.750
684.92;44.800
685.49;45.450
686.06;44.000
686.62;44.350
687.19;37.000
687.76;47.550
688.33;42.400
688.90;40.750
689.46;43.900
690.03;50.650
690.60;43.600
691.17;50.450
691.74;48.000
692.30;38.350
692.87;46.900
693.44;37.550
694.01;41.900
694.57;45.450
695.14;48.100
695.71;42.450
696.28;49.800
696.84;47.650
697.41;46.200
697.98;47.250
698.55;46.300
699.11;41.050
699.68;43.700
700.25;41.150
700.82;46.000
701.38;45.250
701.95;48.600
702.52;44.750
703.08;44.800
703.65;45.650
704.22;50.100
704.78;45.050
705.35;41.800
705.92;42.350
706.48;47.500
707.05;35.250
707.62;40.700
708.18;39.050
708.75;37.500
709.32;35.150
709.88;44.100
710.45;41.050
711.02;48.800
711.58;43.250
712.15;47.200
712.72;45.550
713.28;41.500
713.85;45.750
714.41;39.900
714.98;41.950
715.55;40.000
716.11;31.050
716.68;36.800
717.24;32.450
717.81;31.300
718.38;34.250
718.94;28.900
719.51;35.250
720.07;36.100
720.64;36.750
721.20;34.800
721.77;37.350
722.33;41.800
722.90;38.250
723.47;34.100
724.03;36.150
724.60;35.400
725.16;29.050
725.73;39.000
726.29;31.150
726.86;32.400
727.42;36.350
727.99;32.200
728.55;40.750
729.12;36.000
729.68;21.350
730.25;35.600
730.81;39.950
731.38;42.000
731.94;39.950
732.51;43.200
733.07;39.450
733.64;42.700
734.20;37.850
734.76;41.800
735.33;33.050
735.89;44.800
736.46;44.750
737.02;39.100
737.59;39.650
738.15;43.100
738.72;46.150
739.28;39.500
739.84;46.250
740.41;48.400
740.97;39.450
741.54;42.300
742.10;42.050
742.66;41.600
743.23;46.750
743.79;49.300
744.35;37.850
744.92;43.300
745.48;43.750
746.05;41.200
746.61;38.950
747.17;48.700
747.74;39.750
748.30;43.700
748.86;43.050
749.43;40.900
749.99;41.750
750.55;35.000
751.12;22.950
751.68;39.500
752.24;28.750
752.81;35.900
753.37;29.250
753.93;43.200
754.50;42.750
755.06;39.600
755.62;34.750
756.18;44.100
756.75;32.550
757.31;36.500
757.87;26.450
758.44;15.500
759.00;26.650
759.56;18.100
760.12;11.450
760.69;11.700
761.25;7.0500
761.81;13.900
762.37;10.750
762.94;19.700
763.50;12.650
764.06;14.900
764.62;16.950
765.18;26.800
765.75;20.350
766.31;31.800
766.87;22.750
767.43;21.700
767.99;29.950
768.56;34.300
769.12;24.950
769.68;31.700
770.24;24.250
770.80;33.700
771.36;28.950
771.93;34.200
772.49;28.050
773.05;27.400
773.61;22.750
774.17;20.500
774.73;25.550
775.29;41.700
775.86;22.950
776.42;17.000
776.98;37.750
777.54;24.700
778.10;24.150
778.66;27.700
779.22;34.250
779.78;31.000
780.34;22.250
780.91;40.800
781.47;26.850
782.03;29.600
782.59;33.850
783.15;30.000
783.71;23.050
784.27;37.900
784.83;23.450
785.39;28.200
785.95;23.350
786.51;31.200
787.07;25.450
787.63;26.900
788.19;24.950
788.75;30.000
789.31;25.050
789.87;26.300
790.43;20.250
790.99;31.700
791.55;29.050
792.11;26.900
792.67;27.150
793.23;26.700
793.79;22.450
794.35;19.000
794.91;22.350
795.47;16.400
796.03;19.150
796.59;29.400
797.15;17.550
797.71;31.100
798.27;24.950
798.83;24.800
799.39;20.550
799.95;31.800
800.51;18.350
801.07;19.800
801.63;27.250
802.19;26.900
802.75;24.950
803.30;14.700
803.86;26.550
804.42;15.300
804.98;26.450
805.54;20.200
806.10;15.550
806.66;23.300
807.22;27.250
807.78;20.800
808.33;26.450
808.89;24.700
809.45;18.450
810.01;15.800
810.57;25.150
811.13;17.000
811.69;20.350
812.24;18.500
812.80;13.650
813.36;11.500
813.92;10.750
814.48;12.600
815.03;15.250
815.59;16.900
816.15;12.950
816.71;17.700
817.27;19.150
817.82;15.800
818.38;20.450
818.94;21.400
819.50;8.9500
820.06;17.900
820.61;13.550
821.17;12.400
821.73;14.650
822.29;11.700
822.84;16.150
823.40;17.000
823.96;20.350
824.52;15.700
825.07;20.650
825.63;22.300
826.19;13.150
826.74;18.900
827.30;15.550
827.86;19.400
828.42;15.250
828.97;17.700
829.53;12.650
830.09;17.500
830.64;18.750
831.20;15.500
831.76;22.050
832.31;20.600
832.87;11.850
833.43;15.800
833.98;14.350
834.54;16.800
835.10;8.7500
835.65;18.500
836.21;21.950
836.77;18.700
837.32;14.950
837.88;21.400
838.43;23.150
838.99;18.500
839.55;13.250
840.10;21.200
840.66;21.250
841.21;20.000
841.77;14.550
842.33;20.000
842.88;14.450
843.44;24.500
843.99;17.350
844.55;13.500
845.11;12.050
845.66;21.900
846.22;18.050
846.77;14.700
847.33;17.250
847.88;22.400
848.44;10.950
848.99;18.900
849.55;17.750
850.10;14.000
850.66;18.150
851.21;19.100
851.77;12.250
852.32;25.200
852.88;8.3500
853.43;14.900
853.99;15.250
854.54;18.200
855.10;20.950
855.65;12.100
856.21;19.050
856.76;22.400
857.32;9.1500
857.87;11.900
858.43;23.350
858.98;17.400
859.54;15.450
860.09;14.400
860.64;14.150
861.20;25.500
861.75;6.9500
862.31;15.700
862.86;18.250
863.41;13.000
863.97;15.150
864.52;17.400
865.08;15.650
865.63;22.000
866.18;11.050
866.74;19.100
867.29;16.750
867.85;23.500
868.40;18.150
868.95;16.700
869.51;9.3500
870.06;22.800
870.61;14.550
871.17;20.500
871.72;13.450
872.27;17.700
872.83;13.750
873.38;14.500
873.93;19.750
874.49;16.700
875.04;12.150
875.59;18.000
876.15;15.950
876.70;24.800
877.25;15.050
877.80;13.300
878.36;11.850
878.91;23.000
879.46;12.150
880.02;20.300
880.57;10.650
881.12;15.800
881.67;10.250
882.23;11.500
882.78;20.050
883.33;29.700
883.88;14.450
884.44;24.500
884.99;18.850
885.54;19.400
886.09;20.550
886.64;15.600
887.20;12.750
887.75;21.200
888.30;22.250
888.85;15.300
889.40;14.250
889.96;10.800
890.51;18.550
891.06;16.400
891.61;13.250
892.16;20.300
892.71;9.3500
893.27;15.500
893.82;19.450
894.37;12.600
894.92;18.350
895.47;15.800
896.02;8.3500
896.57;15.500
897.13;12.350
897.68;10.100
898.23;10.550
898.78;10.200
899.33;8.8500
899.88;14.600
900.43;13.250
900.98;17.100
901.53;10.250
902.08;16.000
902.63;14.250
903.19;15.200
903.74;15.650
904.29;15.100
904.84;12.350
905.39;14.600
905.94;11.650
906.49;8.3000
907.04;14.050
907.59;10.900
908.14;5.5500
908.69;9.3000
909.24;8.0500
909.79;17.100
910.34;14.750
910.89;16.900
911.44;8.1500
911.99;2.6000
912.54;7.3500
913.09;9.7000
913.64;12.550
914.19;12.700
914.74;9.8500
915.29;5.6000
915.84;9.2500
916.39;9.6000
916.94;5.9500
917.49;11.300
918.04;12.650
918.58;21.900
919.13;6.9500
919.68;14.500
920.23;9.9500
920.78;14.500
921.33;10.750
921.88;7.7000
922.43;14.550
922.98;15.000
923.53;4.7500
924.08;12.300
924.62;17.450
925.17;6.4000
925.72;15.150
926.27;4.5000
926.82;14.550
927.37;0.7000
927.92;10.650
928.46;8.6000
929.01;2.6500
929.56;4.6000
930.11;8.5500
930.66;4.0000
931.21;5.0500
931.75;0.5000
932.30;0.1500
932.85;7.1000
933.40;6.3500
933.95;1.9000
934.49;-0.8500
935.04;-2.5000
935.59;8.4500
936.14;1.2000
936.69;-1.5500
937.23;7.4000
937.78;-3.4500
938.33;8.4000
938.88;5.9500
939.42;6.7000
939.97;6.8500
940.52;1.9000
941.07;0.3500
941.61;8.6000
942.16;2.0500
942.71;2.4000
943.25;8.8500
943.80;2.7000
944.35;4.2500
944.90;-1.1000
945.44;5.6500
945.99;3.2000
946.54;-2.5500
947.08;6.9000
947.63;-0.05000
948.18;8.6000
948.72;4.3500
949.27;8.1000
949.82;1.8500
950.36;10.800
950.91;7.3500
951.46;3.2000
952.00;6.2500
952.55;2.6000
953.09;2.2500
953.64;7.5000
954.19;6.7500
954.73;1.7000
955.28;1.5500
955.82;13.100
956.37;-4.6500
956.92;10.700
957.46;2.5500
958.01;8.9000
958.55;3.3500
959.10;14.000
959.65;4.6500
960.19;9.3000
960.74;7.6500
961.28;3.6000
961.83;2.0500
962.37;-1.9000
962.92;3.5500
963.46;10.100
964.01;0.05000
964.55;5.4000
965.10;7.4500
965.64;4.5000
966.19;6.1500
966.73;5.5000
967.28;1.0500
967.82;15.300
968.37;2.2500
968.91;6.8000
969.46;11.850
970.00;12.100
970.55;8.4500
971.09;10.500
971.64;4.9500
972.18;7.5000
972.73;1.1500
973.27;6.4000
973.82;4.1500
974.36;2.5000
974.90;12.950
975.45;12.200
975.99;2.4500
976.54;10.700
977.08;-1.8500
977.62;9.8000
978.17;10.550
978.71;7.0000
979.26;5.0500
979.80;2.2000
980.34;5.0500
980.89;5.6000
981.43;-2.7500
981.97;6.6000
982.52;-2.3500
983.06;8.7000
983.61;0.8500
984.15;1.9000
984.69;-0.4500
985.24;12.900
985.78;3.0500
986.32;9.0000
986.87;6.0500
987.41;6.2000
987.95;9.9500
988.49;9.5000
989.04;5.0500
989.58;7.9000
990.12;2.7500
990.67;3.0000
991.21;4.2500
991.75;7.4000
992.29;3.6500
992.84;8.1000
993.38;-5.3500
993.92;9.1000
994.46;0.4500
995.01;6.6000
995.55;5.5500
996.09;4.5000
996.63;4.5500
997.18;4.2000
997.72;-1.0500
998.26;8.1000
998.80;3.4500
999.34;4.3000
999.89;3.1500
1000.43;3.4000
1000.97;-2.2500
1001.51;5.4000
1002.05;3.1500
1002.60;5.8000
1003.14;-3.5500
1003.68;4.3000
1004.22;8.0500
1004.76;3.9000
1005.30;7.1500
1005.84;0.8000
1006.39;0.8500
1006.93;1.6000
1007.47;1.6500
1008.01;0.2000
1008.55;-1.6500
1009.09;8.5000
1009.63;4.5500
1010.17;-1.8000
1010.72;-1.8500
1011.26;3.2000
1011.80;-3.0500
1012.34;4.5000
1012.88;-2.5500
1013.42;4.3000
1013.96;-1.8500
1014.50;3.0000
1015.04;-2.4500
1015.58;12.600
1016.12;11.950
1016.66;-1.6000
1017.20;3.0500
1017.74;-0.1000
1018.28;-3.2500
1018.82;7.0000
1019.36;-1.1500
1019.90;5.0000
1020.44;-3.6500
1020.98;4.3000
1021.52;-0.4500
1022.06;8.9000
1022.60;-6.9500
1023.14;4.4000
1023.68;-6.4500
1024.22;1.8000
1024.76;1.9500
1025.30;-1.0000
1025.84;-0.1500
1026.38;2.1000
1026.92;0.2500
1027.46;0.1000
1028.00;5.0500
1028.54;6.4000
1029.08;-2.8500
1029.62;5.8000
1030.16;5.1500
1030.70;-2.1000
1031.23;-2.4500
1031.77;-2.0000
1032.31;-2.5500
1032.85;3.8000
1033.39;-5.9500
1033.93;-1.1000
1034.47;5.7500
1035.01;-5.0000
1035.54;5.5500
1036.08;0.8000
1036.62;-3.2500
1037.16;6.6000
1037.70;-1.8500
1038.24;2.2000
1038.78;-2.4500
1039.31;5.2000
1039.85;-0.7500
1040.39;-4.8000
1040.93;-8.3500
1041.47;5.5000
1042.00;1.4500
1042.54;-3.9000
1043.08;-3.3500
1043.62;-0.2000
1044.16;-4.4500
1044.69;1.2000
1045.23;-4.4500
1045.77;6.0000
1046.31;-7.1500
1046.84;1.0000
1047.38;-0.5500
1047.92;-5.2000
1048.46;-0.1500
1048.99;-5.3000
1049.53;-7.4500
1050.07;3.7000
1050.61;-8.3500
1051.14;-4.5000
1051.68;1.0500
1052.22;-2.4000
1052.75;0.5500
1053.29;-3.0000
1053.83;-3.8500
1054.36;2.8000
1054.90;-4.0500
1055.44;-8.9000
1055.97;4.2500
1056.51;1.3000
1057.05;-0.1500
1057.58;-5.1000
1058.12;1.1500
1058.66;4.2000
1059.19;-4.9500
1059.73;-3.0000
1060.27;-4.2500
1060.80;1.0000
1061.34;-2.1500
1061.87;-3.8000
1062.41;-7.1500
1062.95;7.2000
1063.48;-5.2500
1064.02;-8.1000
1064.55;-5.8500
1065.09;-1.5000
1065.63;-5.7500
1066.16;1.5000
1066.70;-6.0500
1067.23;2.6000
1067.77;-6.4500
1068.30;-2.1000
1068.84;7.6500
1069.37;-2.8000
1069.91;-2.2500
1070.44;-7.0000
1070.98;-6.9500
1071.52;-3.3000
1072.05;-0.9500
1072.59;-0.2000
1073.12;-9.6500
1073.66;-4.2000
1074.19;-5.3500
1074.73;-4.2000
1075.26;-8.0500
1075.79;12.700
1076.33;-8.5500
1076.86;1.9000
1077.40;2.5500
1077.93;-1.3000
1078.47;0.9500
1079.00;-6.8000
1079.54;-6.9500
1080.07;0.1000
1080.60;-2.5500
1081.14;2.5000
1081.67;-7.8500
1082.21;-3.7000
1082.74;-5.0500
1083.28;-2.6000
1083.81;-2.9500
1084.34;5.3000
1084.88;-10.750
1085.41;2.4000
1085.94;-4.3500
1086.48;-4.9000
1087.01;-1.6500
1087.55;-5.7000
1088.08;2.3500
1088.61;-4.2000
1089.15;6.7500
1089.68;-9.2000
1090.21;-10.750
1090.75;-6.9000
1091.28;2.1500
1091.81;-0.9000
1092.35;-6.5500
1092.88;-1.5000
1093.41;-5.9500
1093.94;4.4000
1094.48;-0.5500
1095.01;-1.0000
1095.54;0.5500
1096.08;-7.5000
1096.61;-4.8500
1097.14;5.3000
1097.67;-1.9500
1098.21;0
1098.74;-7.9500
1099.27;0.4000
1099.80;-3.0500
1100.34;-0.9000
