M- Vis_background
Integration time: 25 ms
Average: 10 scans
Nr of pixels used for smoothing: 0
Data measured with spectrometer serial number: 0608009S1
Wave   ;Sample
[nm]   ;[counts]
277.42;-3.8000
278.02;4.6250
278.61;-0.3000
279.21;-3.9750
279.80;-6.7000
280.40;-7.1750
280.99;-7.7000
281.59;4.2250
282.18;-5.8000
282.78;-9.7750
283.37;-4.8000
283.97;-5.5750
284.56;-3.4000
285.15;-0.1750
285.75;1.0000
286.34;6.4250
286.94;-3.4000
287.53;9.7250
288.13;13.700
288.72;-2.5750
289.31;-6.5000
289.91;6.3250
290.50;1.7000
291.10;2.1250
291.69;0.9000
292.29;4.3250
292.88;-4.2000
293.47;6.4250
294.07;-3.9000
294.66;1.6250
295.25;-9.4000
295.85;-4.3750
296.44;-6.3000
297.04;6.1250
297.63;0.8000
298.22;-1.5750
298.82;-9.2000
299.41;-0.1750
300.00;4.9000
300.60;-9.0750
301.19;-5.6000
301.79;-6.7750
302.38;-10.900
302.97;-4.6750
303.57;-3.6000
304.16;-6.0750
304.75;-3.9000
305.35;-4.6750
305.94;-14.300
306.53;2.3250
307.13;1.9000
307.72;3.2250
308.31;-5.2000
308.90;-2.5750
309.50;-2.0000
310.09;2.7250
310.68;-5.1000
311.28;-5.9750
311.87;-9.3000
312.46;2.3250
313.06;-6.4000
313.65;1.7250
314.24;-6.6000
314.83;-10.275
315.43;-4.0000
316.02;1.0250
316.61;0.6000
317.20;5.6250
317.80;-6.1000
318.39;-5.5750
318.98;2.5000
319.57;-9.0750
320.17;-6.2000
320.76;0.2250
321.35;-2.9000
321.94;-4.6750
322.54;-10.0000
323.13;2.2250
323.72;-13.500
324.31;-1.9750
324.90;-6.4000
325.50;-11.975
326.09;3.7000
326.68;-4.1750
327.27;-8.9000
327.87;-11.675
328.46;-1.5000
329.05;-5.7750
329.64;-11.600
330.23;-9.1750
330.82;-3.5000
331.42;3.2250
332.01;-7.2000
332.60;-7.0750
333.19;-3.9000
333.78;1.4250
334.37;-14.500
334.97;-13.975
335.56;-0.1000
336.15;-2.5750
336.74;-2.5000
337.33;-6.4750
337.92;1.0000
338.52;-5.5750
339.11;-9.6000
339.70;-1.6750
340.29;-3.8000
340.88;-2.4750
341.47;-0.7000
342.06;-8.3750
342.65;-4.6000
343.25;-4.0750
343.84;-7.2000
344.43;-4.6750
345.02;-4.2000
345.61;-7.1750
346.20;-5.2000
346.79;-3.4750
347.38;-2.8000
347.97;-1.4750
348.56;-12.800
349.15;-3.0750
349.74;-14.900
350.34;-0.1750
350.93;-2.5000
351.52;-5.3750
352.11;-4.2000
352.70;1.9250
353.29;-10.900
353.88;-2.1750
354.47;-1.3000
355.06;-4.5750
355.65;0.1000
356.24;-6.9750
356.83;-6.3000
357.42;-5.0750
358.01;-4.0000
358.60;-6.2750
359.19;2.3000
359.78;-0.2750
360.37;-5.5000
360.96;-3.6750
361.55;4.2000
362.14;-2.2750
362.73;-9.3000
363.32;-12.775
363.91;-7.9000
364.50;8.5250
365.09;1.3000
365.68;-3.3750
366.27;-9.2000
366.86;-5.1750
367.45;-7.8000
368.04;-1.8750
368.63;-6.0000
369.22;-1.6750
369.81;-5.1000
370.40;-2.7750
370.99;-1.5000
371.58;0.6250
372.17;-9.1000
372.76;-4.1750
373.34;-3.0000
373.93;3.0250
374.52;-3.9000
375.11;-4.4750
375.70;-10.100
376.29;-3.4750
376.88;-7.2000
377.47;1.2250
378.06;-9.9000
378.65;-9.0750
379.24;-8.8000
379.82;8.5250
380.41;-7.5000
381.00;2.8250
381.59;-7.1000
382.18;-9.0750
382.77;-8.2000
383.36;0.2250
383.95;-5.3000
384.54;3.3250
385.12;-10.500
385.71;-5.8750
386.30;-5.4000
386.89;-2.4750
387.48;-9.5000
388.07;-12.075
388.65;-14.000
389.24;-1.5750
389.83;-1.6000
390.42;-1.0750
391.01;0.8000
391.60;13.925
392.18;-6.2000
392.77;-11.575
393.36;-2.5000
393.95;1.3250
394.54;-8.0000
395.12;-3.2750
395.71;-4.5000
396.30;1.7250
396.89;-3.2000
397.48;-11.475
398.06;-8.6000
398.65;-3.9750
399.24;-1.7000
399.83;-7.4750
400.41;-6.4000
401.00;-6.8750
401.59;-3.6000
402.18;-4.2750
402.77;-6.3000
403.35;-2.6750
403.94;-9.4000
404.53;-6.0750
405.11;-8.3000
405.70;-6.1750
406.29;-8.3000
406.88;-6.4750
407.46;-9.8000
408.05;7.2250
408.64;-9.0000
409.23;-2.2750
409.81;1.1000
410.40;-0.6750
410.99;-5.4000
411.57;1.5250
412.16;-4.1000
412.75;-3.7750
413.33;-9.1000
413.92;-2.9750
414.51;-7.0000
415.10;-7.5750
415.68;-0.4000
416.27;-7.9750
416.86;-11.900
417.44;-7.8750
418.03;2.9000
418.61;-3.9750
419.20;-3.6000
419.79;4.0250
420.37;-4.5000
420.96;-5.0750
421.55;0.4000
422.13;3.8250
422.72;-10.500
423.31;-5.6750
423.89;-6.4000
424.48;-3.3750
425.06;-1.3000
425.65;0.7250
426.24;-2.6000
426.82;0.5250
427.41;-10.800
427.99;-4.0750
428.58;-2.1000
429.17;1.8250
429.75;-14.000
430.34;8.3250
430.92;-11.500
431.51;-1.2750
432.10;-13.800
432.68;2.6250
433.27;-10.0000
433.85;-5.4750
434.44;-6.1000
435.02;-3.1750
435.61;-8.6000
436.19;0.3250
436.78;-5.7000
437.37;-7.8750
437.95;-9.0000
438.54;3.9250
439.12;-9.6000
439.71;-2.7750
440.29;-7.2000
440.88;2.3250
441.46;-9.4000
442.05;-11.275
442.63;-10.600
443.22;-5.2750
443.80;-7.3000
444.39;-3.9750
444.97;-12.500
445.56;-3.6750
446.14;-11.700
446.73;-7.2750
447.31;1.7000
447.90;0.9250
448.48;-6.3000
449.07;-1.8750
449.65;-7.3000
450.23;1.6250
450.82;-7.0000
451.40;-5.2750
451.99;-1.5000
452.57;-5.3750
453.16;-5.1000
453.74;-2.5750
454.33;-3.3000
454.91;0.2250
455.49;-9.7000
456.08;-5.9750
456.66;-5.1000
457.25;-5.6750
457.83;-2.5000
458.41;0.8250
459.00;-14.500
459.58;-2.6750
460.17;-2.6000
460.75;-8.2750
461.33;1.1000
461.92;-3.8750
462.50;5.6000
463.09;0.6250
463.67;-4.9000
464.25;0.4250
464.84;-15.000
465.42;-0.2750
466.00;-3.6000
466.59;4.4250
467.17;-10.800
467.75;-0.6750
468.34;0.6000
468.92;0.02500
469.50;-0.6000
470.09;-6.3750
470.67;-10.700
471.25;-6.9750
471.84;-0.7000
472.42;-0.07500
473.00;-3.3000
473.59;4.2250
474.17;-6.1000
474.75;-7.5750
475.34;-7.0000
475.92;-0.2750
476.50;-5.4000
477.08;2.4250
477.67;-5.2000
478.25;-5.7750
478.83;0.4000
479.42;-9.7750
480.00;-2.1000
480.58;0.02500
481.16;-6.5000
481.75;0.8250
482.33;-2.5000
482.91;-1.2750
483.49;10.100
484.08;-6.4750
484.66;-3.1000
485.24;3.6250
485.82;-8.1000
486.40;-7.3750
486.99;-2.5000
487.57;1.9250
488.15;-0.1000
488.73;-6.7750
489.32;-15.600
489.90;-2.1750
490.48;0.6000
491.06;-6.6750
491.64;-9.6000
492.22;-8.4750
492.81;-6.4000
493.39;-2.9750
493.97;-2.7000
494.55;3.1250
495.13;-2.9000
495.72;-3.0750
496.30;-5.8000
496.88;-5.7750
497.46;-3.6000
498.04;-10.175
498.62;-7.9000
499.20;8.4250
499.79;-8.7000
500.37;-0.4750
500.95;1.4000
501.53;0.7250
502.11;-7.2000
502.69;2.1250
503.27;-12.000
503.85;5.7250
504.44;-7.7000
505.02;-8.8750
505.60;-8.3000
506.18;-2.1750
506.76;-3.2000
507.34;-7.9750
507.92;-15.100
508.50;-12.375
509.08;-5.9000
509.66;-12.575
510.24;-4.6000
510.82;-7.9750
511.40;-6.9000
511.99;1.1250
512.57;-8.3000
513.15;-0.8750
513.73;-3.8000
514.31;-12.275
514.89;-12.100
515.47;-7.2750
516.05;-7.5000
516.63;2.3250
517.21;-10.500
517.79;-1.7750
518.37;-4.9000
518.95;-2.6750
519.53;-4.2000
520.11;-4.4750
520.69;-5.4000
521.27;2.9250
521.85;-7.8000
522.43;-1.6750
523.01;-3.6000
523.59;1.9250
524.17;-8.0000
524.75;-2.1750
525.33;-3.4000
525.91;-9.0750
526.49;-6.7000
527.07;-7.1750
527.65;-4.5000
528.23;-2.6750
528.80;-2.3000
529.38;3.4250
529.96;-8.0000
530.54;1.0250
531.12;-4.4000
531.70;-2.4750
532.28;-7.8000
532.86;-5.3750
533.44;-10.600
534.02;-6.5750
534.60;-14.200
535.18;3.1250
535.76;-1.7000
536.33;0.5250
536.91;3.6000
537.49;-5.3750
538.07;-6.2000
538.65;-8.2750
539.23;-6.2000
539.81;1.5250
540.39;-9.5000
540.96;-6.1750
541.54;-0.9000
542.12;-2.5750
542.70;-8.4000
543.28;-14.075
543.86;-10.600
544.43;10.025
545.01;-4.6000
545.59;-6.7750
546.17;-8.8000
546.75;-1.9750
547.33;-2.4000
547.90;-3.4750
548.48;-7.7000
549.06;-10.175
549.64;-8.5000
550.22;2.4250
550.79;0.5000
551.37;-12.375
551.95;-1.7000
552.53;-4.8750
553.11;-6.0000
553.68;0.3250
554.26;-6.8000
554.84;-7.3750
555.42;-3.4000
555.99;-1.1750
556.57;-10.800
557.15;7.4250
557.73;-4.1000
558.30;-7.4750
558.88;-6.0000
559.46;-2.7750
560.04;-1.3000
560.61;0.1250
561.19;-6.1000
561.77;2.4250
562.35;-6.1000
562.92;-6.3750
563.50;-2.4000
564.08;-1.9750
564.65;-6.1000
565.23;-6.8750
565.81;0.6000
566.38;4.0250
566.96;-2.7000
567.54;1.3250
568.11;-1.5000
568.69;-12.175
569.27;-2.2000
569.84;1.3250
570.42;-1.0000
571.00;-6.2750
571.57;-7.4000
572.15;-3.0750
572.73;-7.1000
573.30;-0.8750
573.88;-0.1000
574.46;3.7250
575.03;-10.200
575.61;-1.0750
576.18;-2.7000
576.76;-10.075
577.34;-7.9000
577.91;-3.6750
578.49;-9.6000
579.07;-1.4750
579.64;-1.0000
580.22;-2.1750
580.79;-5.1000
581.37;-1.7750
581.94;-3.0000
582.52;-6.1750
583.10;-6.9000
583.67;5.2250
584.25;-0.3000
584.82;-1.8750
585.40;-5.1000
585.97;-0.3750
586.55;0.5000
587.12;-3.0750
587.70;-5.3000
588.28;2.1250
588.85;-1.7000
589.43;0.9250
590.00;-6.3000
590.58;4.1250
591.15;-1.4000
591.73;-1.4750
592.30;-3.9000
592.88;-4.6750
593.45;-2.7000
594.03;-3.2750
594.60;-1.1000
595.18;1.0250
595.75;-0.1000
596.33;-5.9750
596.90;-5.9000
597.48;3.0250
598.05;-1.5000
598.63;9.2250
599.20;-13.300
599.77;-3.4750
600.35;-6.0000
600.92;3.2250
601.50;0
602.07;1.8250
602.65;-4.7000
603.22;-3.1750
603.79;-5.5000
604.37;-4.3750
604.94;0.6000
605.52;-2.7750
606.09;-8.3000
606.67;2.3250
607.24;3.9000
607.81;3.6250
608.39;0.9000
608.96;-9.4750
609.54;-4.0000
610.11;1.6250
610.68;-9.5000
611.26;-1.7750
611.83;1.6000
612.40;-8.9750
612.98;-8.4000
613.55;-3.9750
614.12;-6.5000
614.70;-0.8750
615.27;-9.1000
615.84;-7.5750
616.42;0.6000
616.99;-5.2750
617.56;-4.8000
618.14;0.02500
618.71;-0.2000
619.28;2.9250
619.86;-7.0000
620.43;0.4250
621.00;-4.1000
621.58;3.1250
622.15;-8.0000
622.72;2.9250
623.30;-3.4000
623.87;0.9250
624.44;-7.5000
625.01;-1.6750
625.59;-9.0000
626.16;6.6250
626.73;1.3000
627.30;-13.575
627.88;-4.9000
628.45;0.3250
629.02;-9.6000
629.59;1.4250
630.17;-1.5000
630.74;-4.1750
631.31;2.8000
631.88;-10.575
632.46;4.6000
633.03;1.1250
633.60;-9.5000
634.17;-3.3750
634.74;-1.3000
635.32;4.6250
635.89;3.8000
636.46;-3.2750
637.03;1.6000
637.60;-0.07500
638.18;-3.7000
638.75;-0.9750
639.32;-4.0000
639.89;-6.9750
640.46;4.9000
641.03;-3.0750
641.61;-10.700
642.18;-0.1750
642.75;0.3000
643.32;-1.1750
643.89;-7.9000
644.46;9.2250
645.03;21.800
645.60;-7.5750
646.18;-6.1000
646.75;2.7250
647.32;-13.900
647.89;-14.475
648.46;-3.0000
649.03;-2.2750
649.60;-7.2000
650.17;-7.6750
650.74;-2.2000
651.31;5.9250
651.89;-4.2000
652.46;-0.2750
653.03;-8.7000
653.60;-7.2750
654.17;-7.3000
654.74;-7.4750
655.31;-3.0000
655.88;0.6250
656.45;-7.1000
657.02;-0.5750
657.59;-4.6000
658.16;-1.1750
658.73;-9.3000
659.30;-8.0750
659.87;-13.800
660.44;-0.07500
661.01;-9.1000
661.58;4.7250
662.15;-4.8000
662.72;0.8250
663.29;-8.9000
663.86;-7.8750
664.43;1.0000
665.00;-7.2750
665.57;-0.9000
666.14;-0.5750
666.71;-9.4000
667.28;2.4250
667.85;4.0000
668.42;-2.8750
668.99;-19.400
669.56;-1.6750
670.13;-0.7000
670.70;4.6250
671.27;-8.9000
671.84;3.3250
672.41;-10.0000
672.98;-7.3750
673.54;-6.9000
674.11;-1.5750
674.68;2.9000
675.25;-8.0750
675.82;-10.100
676.39;0.02500
676.96;-10.200
677.53;-5.5750
678.10;-11.800
678.67;-6.2750
679.23;-12.200
679.80;-1.7750
680.37;-6.8000
680.94;5.4250
681.51;-10.900
682.08;-4.9750
682.65;-6.2000
683.21;-6.8750
683.78;-7.5000
684.35;-8.1750
684.92;-5.4000
685.49;-5.6750
686.06;-6.9000
686.62;-1.2750
687.19;-7.4000
687.76;-1.3750
688.33;-8.9000
688.90;-2.5750
689.46;-1.2000
690.03;3.8250
690.60;-8.6000
691.17;0.2250
691.74;-8.0000
692.30;-3.1750
692.87;-6.0000
693.44;-1.9750
694.01;-4.5000
694.57;-7.2750
695.14;-10.100
695.71;-8.3750
696.28;-1.0000
696.84;-0.5750
697.41;-6.5000
697.98;0.2250
698.55;-6.9000
699.11;-3.4750
699.68;-9.2000
700.25;-10.375
700.82;-0.2000
701.38;5.4250
701.95;-5.7000
702.52;-1.7750
703.08;-6.9000
703.65;-1.6750
704.22;0.4000
704.78;0.1250
705.35;-1.7000
705.92;-5.1750
706.48;-9.4000
707.05;-1.4750
707.62;-6.1000
708.18;-10.775
708.75;-9.6000
709.32;-6.7750
709.88;-4.4000
710.45;-12.575
711.02;-2.9000
711.58;-6.2750
712.15;-1.4000
712.72;-2.3750
713.28;-1.3000
713.85;-8.4750
714.41;-5.0000
714.98;0.02500
715.55;-9.2000
716.11;-2.6750
716.68;-8.5000
717.24;-2.6750
717.81;-6.6000
718.38;-7.4750
718.94;-4.9000
719.51;-7.5750
720.07;0
720.64;-1.4750
721.20;-6.6000
721.77;-4.7750
722.33;0.6000
722.90;-4.1750
723.47;0.5000
724.03;-0.6750
724.60;-3.6000
725.16;-4.2750
725.73;-10.100
726.29;-4.2750
726.86;-10.900
727.42;-3.9750
727.99;-13.600
728.55;-4.7750
729.12;-13.000
729.68;-12.375
730.25;-9.7000
730.81;-11.075
731.38;-5.7000
731.94;-6.5750
732.51;-5.4000
733.07;-6.6750
733.64;-9.8000
734.20;-9.1750
734.76;-7.7000
735.33;-1.8750
735.89;-10.400
736.46;-14.175
737.02;-16.000
737.59;2.2250
738.15;-12.300
738.72;6.7250
739.28;-6.2000
739.84;-0.4750
740.41;-12.700
740.97;-7.3750
741.54;1.1000
742.10;-2.7750
742.66;-5.7000
743.23;-8.4750
743.79;-11.200
744.35;-6.7750
744.92;-12.500
745.48;-14.275
746.05;-7.9000
746.61;-7.1750
747.17;-11.400
747.74;-0.1750
748.30;-8.2000
748.86;-7.9750
749.43;-11.500
749.99;3.7250
750.55;-10.800
751.12;-4.9750
751.68;-7.5000
752.24;-7.9750
752.81;-12.500
753.37;-2.3750
753.93;-7.8000
754.50;-9.5750
755.06;-10.300
755.62;1.5250
756.18;-0.9000
756.75;-6.5750
757.31;-8.3000
757.87;-3.5750
758.44;-14.500
759.00;-5.7750
759.56;-6.2000
760.12;-4.6750
760.69;-2.8000
761.25;-11.975
761.81;-2.7000
762.37;-3.6750
762.94;-4.4000
763.50;-12.975
764.06;-8.1000
764.62;-0.2750
765.18;2.7000
765.75;-2.3750
766.31;-6.9000
766.87;0.1250
767.43;-9.0000
767.99;-7.9750
768.56;-8.5000
769.12;-4.8750
769.68;-8.9000
770.24;-5.5750
770.80;-10.700
771.36;-9.1750
771.93;-5.8000
772.49;-11.175
773.05;-8.0000
773.61;-8.7750
774.17;-12.200
774.73;-4.3750
775.29;0.8000
775.86;-0.07500
776.42;-14.100
776.98;-2.7750
777.54;-3.2000
778.10;-8.5750
778.66;-12.900
779.22;1.9250
779.78;-12.700
780.34;-1.6750
780.91;-5.4000
781.47;-1.0750
782.03;-14.700
782.59;-5.2750
783.15;-4.8000
783.71;-9.3750
784.27;-8.8000
784.83;3.2250
785.39;-9.0000
785.95;-3.5750
786.51;-8.4000
787.07;-4.0750
787.63;-4.0000
788.19;-6.2750
788.75;-11.500
789.31;-5.6750
789.87;-8.1000
790.43;-8.0750
790.99;-6.2000
791.55;-3.9750
792.11;-5.1000
792.67;-2.3750
793.23;-5.8000
793.79;-1.0750
794.35;-16.800
794.91;-5.3750
795.47;-11.000
796.03;-3.2750
796.59;-7.2000
797.15;-7.2750
797.71;-10.0000
798.27;-2.3750
798.83;0.7000
799.39;-0.1750
799.95;-19.700
800.51;-9.2750
801.07;-4.8000
801.63;-4.0750
802.19;-6.4000
802.75;-1.6750
803.30;-8.3000
803.86;-10.175
804.42;-14.700
804.98;-6.9750
805.54;-16.800
806.10;-9.3750
806.66;-16.500
807.22;-1.3750
807.78;1.5000
808.33;-5.1750
808.89;-11.400
809.45;-10.175
810.01;-8.5000
810.57;-12.675
811.13;-10.300
811.69;-4.2750
812.24;-7.1000
812.80;0.6250
813.36;-5.1000
813.92;-9.4750
814.48;-7.5000
815.03;-2.4750
815.59;-4.6000
816.15;-5.7750
816.71;-4.7000
817.27;1.6250
817.82;-9.5000
818.38;-0.9750
818.94;-8.0000
819.50;-5.5750
820.06;-9.1000
820.61;5.0250
821.17;-10.800
821.73;-5.8750
822.29;-8.7000
822.84;-5.2750
823.40;-8.9000
823.96;0.1250
824.52;-4.6000
825.07;-3.9750
825.63;0
826.19;-1.3750
826.74;-9.0000
827.30;-9.8750
827.86;2.7000
828.42;2.7250
828.97;-8.9000
829.53;-2.5750
830.09;-6.2000
830.64;0.8250
831.20;-1.0000
831.76;-9.0750
832.31;-6.7000
832.87;-10.975
833.43;-13.000
833.98;1.2250
834.54;-8.6000
835.10;0.7250
835.65;3.7000
836.21;-16.375
836.77;-8.4000
837.32;-5.8750
837.88;-5.4000
838.43;-1.8750
838.99;-9.7000
839.55;-6.8750
840.10;-0.2000
840.66;-2.6750
841.21;-6.9000
841.77;-10.475
842.33;-10.600
842.88;-4.0750
843.44;-10.400
843.99;3.4250
844.55;-5.4000
845.11;-10.875
845.66;-7.5000
846.22;-5.2750
846.77;-10.300
847.33;-9.6750
847.88;-7.1000
848.44;-10.375
848.99;-10.0000
849.55;-7.8750
850.10;-11.300
850.66;-4.9750
851.21;-11.200
851.77;-6.9750
852.32;-1.9000
852.88;-11.475
853.43;-0.5000
853.99;-8.6750
854.54;-10.600
855.10;-2.2750
855.65;-7.4000
856.21;-1.7750
856.76;-14.000
857.32;-10.875
857.87;-9.1000
858.43;3.3250
858.98;-8.1000
859.54;0.4250
860.09;-5.8000
860.64;-2.6750
861.20;-9.4000
861.75;-5.8750
862.31;-5.4000
862.86;-1.4750
863.41;-15.200
863.97;-0.7750
864.52;-7.7000
865.08;-4.9750
865.63;-5.2000
866.18;-3.6750
866.74;0.3000
867.29;-4.9750
867.85;-4.4000
868.40;-0.6750
868.95;-11.900
869.51;-8.0750
870.06;-7.6000
870.61;-2.7750
871.17;-0.5000
871.72;-2.8750
872.27;-14.400
872.83;-3.2750
873.38;-6.2000
873.93;-1.0750
874.49;-2.6000
875.04;-8.5750
875.59;-4.4000
876.15;5.4250
876.70;-7.1000
877.25;2.2250
877.80;-5.2000
878.36;-1.6750
878.91;-8.6000
879.46;-0.3750
880.02;-9.2000
880.57;2.7250
881.12;-13.100
881.67;-6.2750
882.23;-7.7000
882.78;-6.5750
883.33;-4.0000
883.88;-8.2750
884.44;-6.3000
884.99;0.5250
885.54;-8.4000
886.09;0.5250
886.64;-6.1000
887.20;-5.2750
887.75;-8.8000
888.30;0.6250
888.85;3.2000
889.40;2.2250
889.96;-7.6000
890.51;1.6250
891.06;-8.1000
891.61;-3.8750
892.16;-11.300
892.71;-5.9750
893.27;-6.0000
893.82;-3.0750
894.37;-4.3000
894.92;-1.2750
895.47;0.7000
896.02;-11.975
896.57;-13.900
897.13;-4.6750
897.68;-9.1000
898.23;-5.5750
898.78;-9.3000
899.33;-7.1750
899.88;-4.9000
900.43;3.8250
900.98;-4.1000
901.53;-5.4750
902.08;-14.700
902.63;8.2250
903.19;-15.800
903.74;-0.2750
904.29;-12.100
904.84;2.4250
905.39;-9.8000
905.94;-9.3750
906.49;-7.0000
907.04;-0.3750
907.59;-11.700
908.14;-7.6750
908.69;-11.700
909.24;-6.3750
909.79;-6.8000
910.34;-1.6750
910.89;-13.600
911.44;-4.4750
911.99;-14.200
912.54;-5.0750
913.09;-1.1000
913.64;-1.2750
914.19;-3.6000
914.74;-8.3750
915.29;-8.2000
915.84;-3.5750
916.39;-6.9000
916.94;-6.4750
917.49;-6.7000
918.04;1.1250
918.58;-7.5000
919.13;-5.0750
919.68;-7.7000
920.23;-4.9750
920.78;-9.0000
921.33;-9.9750
921.88;-7.3000
922.43;-10.375
922.98;-10.500
923.53;-9.0750
924.08;-12.200
924.62;3.5250
925.17;-13.000
925.72;-10.675
926.27;-2.6000
926.82;-3.7750
927.37;-7.5000
927.92;-6.7750
928.46;-10.500
929.01;-6.1750
929.56;-9.3000
930.11;-2.6750
930.66;-10.100
931.21;-3.6750
931.75;-3.0000
932.30;-8.7750
932.85;-5.1000
933.40;-2.3750
933.95;1.1000
934.49;-8.9750
935.04;-8.6000
935.59;12.125
936.14;-6.7000
936.69;-2.1750
937.23;-9.1000
937.78;-4.3750
938.33;-0.6000
938.88;-6.0750
939.42;-11.700
939.97;-2.4750
940.52;-9.7000
941.07;-7.4750
941.61;-10.800
942.16;-7.6750
942.71;-5.8000
943.25;-0.4750
943.80;-9.5000
944.35;-8.6750
944.90;-9.3000
945.44;-3.1750
945.99;-1.4000
946.54;-8.0750
947.08;-9.6000
947.63;-10.475
948.18;-14.300
948.72;-5.2750
949.27;-7.1000
949.82;-3.5750
950.36;-4.0000
950.91;-5.9750
951.46;-3.0000
952.00;-3.1750
952.55;-7.6000
953.09;-2.0750
953.64;-7.4000
954.19;-1.2750
954.73;-7.0000
955.28;-8.4750
955.82;1.2000
956.37;-11.175
956.92;-5.3000
957.46;-1.5750
958.01;1.3000
958.55;-8.3750
959.10;-10.500
959.65;-0.9750
960.19;4.0000
960.74;1.8250
961.28;-18.900
961.83;-1.4750
962.37;-16.100
962.92;-0.7750
963.46;-4.4000
964.01;-2.3750
964.55;-7.9000
965.10;-5.9750
965.64;-15.600
966.19;-4.0750
966.73;-4.0000
967.28;-7.7750
967.82;-12.500
968.37;-8.5750
968.91;-8.2000
969.46;-8.0750
970.00;-9.4000
970.55;2.6250
971.09;-10.600
971.64;-9.5750
972.18;-3.6000
972.73;-12.075
973.27;-8.4000
973.82;-10.675
974.36;-18.700
974.90;10.125
975.45;1.2000
975.99;-0.9750
976.54;-5.5000
977.08;-7.7750
977.62;-6.7000
978.17;0.1250
978.71;-12.300
979.26;-4.4750
979.80;-10.200
980.34;-5.8750
980.89;-8.2000
981.43;-1.5750
981.97;-7.6000
982.52;-7.3750
983.06;-6.5000
983.61;-7.0750
984.15;-12.500
984.69;-5.6750
985.24;-6.6000
985.78;-8.0750
986.32;-2.0000
986.87;-3.3750
987.41;-6.9000
987.95;-3.0750
988.49;-12.800
989.04;-2.5750
989.58;0
990.12;-8.5750
990.67;-10.200
991.21;-8.1750
991.75;-12.100
992.29;-3.2750
992.84;3.9000
993.38;-2.1750
993.92;-3.5000
994.46;-6.8750
995.01;-1.1000
995.55;-7.8750
996.09;-11.300
996.63;-4.0750
997.18;-9.8000
997.72;-3.2750
998.26;4.5000
998.80;5.0250
999.34;-5.2000
999.89;-9.3750
1000.43;-3.8000
1000.97;-4.4750
1001.51;-8.0000
1002.05;1.5250
1002.60;-1.0000
1003.14;-8.6750
1003.68;-13.300
1004.22;-5.5750
1004.76;-4.9000
1005.30;-6.5750
1005.84;-6.3000
1006.39;-7.6750
1006.93;-12.600
1007.47;-3.4750
1008.01;-9.6000
1008.55;-6.5750
1009.09;-4.9000
1009.63;-4.3750
1010.17;-8.7000
1010.72;-2.5750
1011.26;-10.300
1011.80;-12.775
1012.34;-10.100
1012.88;-7.3750
1013.42;-9.3000
1013.96;-4.3750
1014.50;1.4000
1015.04;-2.4750
1015.58;-19.700
1016.12;-17.775
1016.66;-9.2000
1017.20;-2.3750
1017.74;-3.9000
1018.28;-3.9750
1018.82;-6.9000
1019.36;-2.4750
1019.90;-7.0000
1020.44;-0.3750
1020.98;-6.3000
1021.52;-3.5750
1022.06;1.6000
1022.60;-0.8750
1023.14;-11.700
1023.68;-4.6750
1024.22;-1.3000
1024.76;1.8250
1025.30;-0.5000
1025.84;-9.7750
1026.38;-9.2000
1026.92;-9.0750
1027.46;-16.400
1028.00;-3.7750
1028.54;-1.8000
1029.08;6.8250
1029.62;-0.3000
1030.16;-3.6750
1030.70;-7.9000
1031.23;-2.8750
1031.77;-8.1000
1032.31;-1.3750
1032.85;-7.1000
1033.39;-3.0750
1033.93;-5.8000
1034.47;-5.6750
1035.01;-12.800
1035.54;12.325
1036.08;-3.7000
1036.62;-3.8750
1037.16;-2.7000
1037.70;-4.8750
1038.24;1.5000
1038.78;-8.6750
1039.31;-2.1000
1039.85;3.9250
1040.39;-7.1000
1040.93;-11.875
1041.47;-4.9000
1042.00;-4.6750
1042.54;0.2000
1043.08;-2.7750
1043.62;-8.4000
1044.16;-5.3750
1044.69;-3.3000
1045.23;-9.7750
1045.77;-1.6000
1046.31;2.0250
1046.84;-1.5000
1047.38;-2.4750
1047.92;-4.2000
1048.46;2.1250
1048.99;-10.100
1049.53;-10.575
1050.07;-10.900
1050.61;-0.8750
1051.14;-5.0000
1051.68;-0.7750
1052.22;-16.800
1052.75;0.8250
1053.29;0
1053.83;-2.0750
1054.36;-5.7000
1054.90;-3.8750
1055.44;-4.4000
1055.97;-10.575
1056.51;-8.3000
1057.05;-4.6750
1057.58;-4.5000
1058.12;-2.7750
1058.66;-10.400
1059.19;-5.0750
1059.73;-11.700
1060.27;-3.0750
1060.80;-0.3000
1061.34;-9.0750
1061.87;-2.3000
1062.41;-8.6750
1062.95;-6.5000
1063.48;5.7250
1064.02;-16.200
1064.55;-2.2750
1065.09;-12.300
1065.63;-2.5750
1066.16;-9.2000
1066.70;-6.8750
1067.23;-6.5000
1067.77;-10.975
1068.30;-9.8000
1068.84;3.5250
1069.37;-12.700
1069.91;-2.8750
1070.44;-2.9000
1070.98;-6.5750
1071.52;-9.3000
1072.05;4.1250
1072.59;1.4000
1073.12;-7.9750
1073.66;-16.300
1074.19;3.7250
1074.73;-9.8000
1075.26;-7.9750
1075.79;-4.5000
1076.33;-6.3750
1076.86;-7.9000
1077.40;-1.1750
1077.93;-4.4000
1078.47;2.5250
1079.00;-4.1000
1079.54;-3.3750
1080.07;-8.0000
1080.60;0.8250
1081.14;-3.5000
1081.67;0.4250
1082.21;-2.2000
1082.74;-8.9750
1083.28;-9.6000
1083.81;-5.8750
1084.34;-5.9000
1084.88;-6.0750
1085.41;1.6000
1085.94;-7.7750
1086.48;-9.4000
1087.01;-4.3750
1087.55;-1.9000
1088.08;-4.4750
1088.61;-9.7000
1089.15;-4.1750
1089.68;-3.3000
1090.21;-6.6750
1090.75;-3.8000
1091.28;2.7250
1091.81;-12.000
1092.35;-9.0750
1092.88;-5.2000
1093.41;-6.7750
1093.94;-12.900
1094.48;-6.4750
1095.01;-5.6000
1095.54;-8.0750
1096.08;-6.7000
1096.61;-4.5750
1097.14;-11.300
1097.67;-4.7750
1098.21;-7.0000
1098.74;3.3250
1099.27;-9.7000
1099.80;-3.3750
1100.34;-3.1000
