M- Hello Photons
Integration time: 25 ms
Average: 10 scans
Nr of pixels used for smoothing: 0
Data measured with spectrometer serial number: 0608009S1
Wave   ;Sample
[nm]   ;[counts]
277.42;15.575
278.02;11.900
278.61;7.1750
279.21;6.9000
279.80;8.7750
280.40;15.100
280.99;9.0750
281.59;0.9000
282.18;4.3750
282.78;9.0000
283.37;1.6750
283.97;8.5000
284.56;5.5750
285.15;0.1000
285.75;7.5750
286.34;6.5000
286.94;7.8750
287.53;7.2000
288.13;11.775
288.72;8.2000
289.31;8.5750
289.91;9.2000
290.50;6.1750
291.10;1.1000
291.69;11.975
292.29;15.000
292.88;2.9750
293.47;19.000
294.07;8.8750
294.66;6.0000
295.25;13.775
295.85;9.9000
296.44;8.3750
297.04;13.500
297.63;0.3750
298.22;11.300
298.82;8.9750
299.41;10.700
300.00;15.975
300.60;9.7000
301.19;4.1750
301.79;4.2000
302.38;11.475
302.97;12.200
303.57;6.6750
304.16;4.7000
304.75;3.5750
305.35;10.300
305.94;-1.0250
306.53;10.500
307.13;9.3750
307.72;10.300
308.31;9.4750
308.90;11.600
309.50;9.8750
310.09;9.5000
310.68;6.6750
311.28;8.0000
311.87;6.8750
312.46;13.600
313.06;9.6750
313.65;5.8000
314.24;4.1750
314.83;13.200
315.43;8.7750
316.02;10.0000
316.61;-2.0250
317.20;13.200
317.80;10.375
318.39;2.8000
318.98;14.975
319.57;3.9000
320.17;6.4750
320.76;13.200
321.35;13.975
321.94;10.0000
322.54;7.2750
323.13;7.2000
323.72;5.8750
324.31;11.800
324.90;11.875
325.50;11.900
326.09;15.775
326.68;14.400
327.27;10.775
327.87;11.500
328.46;11.275
329.05;14.200
329.64;10.475
330.23;10.700
330.82;19.475
331.42;12.900
332.01;25.775
332.60;19.000
333.19;13.675
333.78;26.900
334.37;17.275
334.97;17.300
335.56;11.175
336.15;21.600
336.74;21.775
337.33;24.700
337.92;23.875
338.52;27.800
339.11;16.575
339.70;15.600
340.29;20.375
340.88;21.600
341.47;29.775
342.06;23.400
342.65;19.575
343.25;30.600
343.84;25.875
344.43;34.300
345.02;42.475
345.61;38.000
346.20;43.775
346.79;52.400
347.38;40.175
347.97;31.600
348.56;35.375
349.15;23.400
349.74;26.275
350.34;40.700
350.93;50.675
351.52;58.800
352.11;58.675
352.70;44.400
353.29;35.775
353.88;14.300
354.47;12.675
355.06;18.300
355.65;24.175
356.24;34.800
356.83;15.775
357.42;26.000
358.01;41.875
358.60;42.000
359.19;53.375
359.78;38.400
360.37;22.075
360.96;19.200
361.55;19.575
362.14;12.800
362.73;16.975
363.32;17.700
363.91;13.575
364.50;22.800
365.09;13.175
365.68;22.600
366.27;7.9750
366.86;20.300
367.45;9.0750
368.04;16.800
368.63;8.4750
369.22;13.000
369.81;12.875
370.40;33.100
370.99;15.975
371.58;19.300
372.17;19.175
372.76;18.500
373.34;12.875
373.93;19.900
374.52;8.4750
375.11;12.100
375.70;7.6750
376.29;11.400
376.88;13.175
377.47;11.600
378.06;8.2750
378.65;8.5000
379.24;7.2750
379.82;22.900
380.41;7.7750
381.00;9.2000
381.59;17.675
382.18;7.4000
382.77;6.9750
383.36;10.600
383.95;3.6750
384.54;17.500
385.12;8.5750
385.71;7.1000
386.30;15.975
386.89;6.2000
387.48;1.6750
388.07;9.2000
388.65;3.8750
389.24;20.300
389.83;10.675
390.42;8.9000
391.01;19.575
391.60;20.800
392.18;9.0750
392.77;6.6000
393.36;4.2750
393.95;19.300
394.54;7.0750
395.12;8.8000
395.71;5.7750
396.30;12.900
396.89;16.075
397.48;1.7000
398.06;1.6750
398.65;9.9000
399.24;7.8750
399.83;8.9000
400.41;8.8750
401.00;7.0000
401.59;16.275
402.18;7.3000
402.77;-1.3250
403.35;5.2000
403.94;7.1750
404.53;8.0000
405.11;0.1750
405.70;9.4000
406.29;12.775
406.88;5.5000
407.46;7.6750
408.05;17.700
408.64;7.0750
409.23;8.8000
409.81;12.575
410.40;4.0000
410.99;12.475
411.57;14.000
412.16;0.8750
412.75;6.4000
413.33;9.2750
413.92;2.7000
414.51;7.6750
415.10;3.1000
415.68;6.7750
416.27;4.1000
416.86;-1.3250
417.44;11.600
418.03;10.875
418.61;0.4000
419.20;4.2750
419.79;3.2000
420.37;11.775
420.96;11.600
421.55;8.2750
422.13;8.2000
422.72;7.4750
423.31;-1.5000
423.89;3.6750
424.48;-0.8000
425.06;2.0750
425.65;12.000
426.24;2.5750
426.82;13.700
427.41;-0.2250
427.99;4.6000
428.58;7.8750
429.17;8.8000
429.75;5.8750
430.34;25.200
430.92;-5.1250
431.51;9.4000
432.10;4.0750
432.68;6.2000
433.27;6.0750
433.85;10.0000
434.44;5.6750
435.02;10.600
435.61;5.7750
436.19;12.500
436.78;10.175
437.37;18.600
437.95;8.4750
438.54;8.0000
439.12;6.0750
439.71;25.300
440.29;12.375
440.88;16.300
441.46;7.5750
442.05;4.5000
442.63;6.9750
443.22;11.300
443.80;9.6750
444.39;9.9000
444.97;8.2750
445.56;15.400
446.14;9.6750
446.73;17.400
447.31;11.375
447.90;9.6000
448.48;12.475
449.07;17.300
449.65;12.975
450.23;8.3000
450.82;11.775
451.40;11.800
451.99;9.2750
452.57;12.600
453.16;14.475
453.74;13.600
454.33;8.6750
454.91;14.400
455.49;10.375
456.08;8.9000
456.66;6.8750
457.25;7.5000
457.83;7.1750
458.41;11.500
459.00;13.975
459.58;4.6000
460.17;5.7750
460.75;5.5000
461.33;9.7750
461.92;16.500
462.50;10.175
463.09;10.0000
463.67;4.4750
464.25;10.500
464.84;10.975
465.42;19.400
466.00;8.1750
466.59;5.9000
467.17;6.6750
467.75;19.000
468.34;8.7750
468.92;13.500
469.50;12.175
470.09;22.000
470.67;15.475
471.25;16.200
471.84;16.075
472.42;11.500
473.00;6.4750
473.59;11.100
474.17;11.375
474.75;7.0000
475.34;2.9750
475.92;9.7000
476.50;-0.1250
477.08;17.300
477.67;7.9750
478.25;3.4000
478.83;9.2750
479.42;4.4000
480.00;5.5750
480.58;11.300
481.16;8.0750
481.75;18.100
482.33;2.2750
482.91;13.900
483.49;21.875
484.08;18.500
484.66;8.1750
485.24;5.6000
485.82;9.5750
486.40;5.6000
486.99;14.075
487.57;7.2000
488.15;8.9750
488.73;7.0000
489.32;-0.7250
489.90;3.8000
490.48;1.8750
491.06;-2.4000
491.64;1.8750
492.22;0.8000
492.81;5.3750
493.39;10.500
493.97;5.9750
494.55;5.2000
495.13;4.8750
495.72;3.5000
496.30;12.675
496.88;8.2000
497.46;2.9750
498.04;7.2000
498.62;-6.1250
499.20;13.300
499.79;8.5750
500.37;12.500
500.95;16.775
501.53;12.100
502.11;22.475
502.69;37.800
503.27;27.175
503.85;34.700
504.44;15.775
505.02;12.200
505.60;17.175
506.18;21.900
506.76;12.175
507.34;27.800
507.92;18.675
508.50;18.000
509.08;16.875
509.66;14.400
510.24;34.775
510.82;27.000
511.40;33.475
511.99;43.300
512.57;27.775
513.15;30.800
513.73;22.775
514.31;22.300
514.89;28.275
515.47;29.200
516.05;20.575
516.63;27.900
517.21;13.875
517.79;21.600
518.37;32.875
518.95;34.800
519.53;31.575
520.11;33.100
520.69;27.275
521.27;42.500
521.85;20.675
522.43;30.000
523.01;22.075
523.59;16.400
524.17;19.975
524.75;18.300
525.33;7.2750
525.91;14.200
526.49;15.675
527.07;17.000
527.65;23.075
528.23;20.500
528.80;33.175
529.38;23.700
529.96;20.175
530.54;32.400
531.12;55.775
531.70;85.700
532.28;118.07
532.86;146.10
533.44;159.18
534.02;144.20
534.60;104.88
535.18;76.200
535.76;44.175
536.33;31.000
536.91;47.175
537.49;33.200
538.07;94.175
538.65;163.90
539.23;204.38
539.81;228.90
540.39;207.68
540.96;145.30
541.54;55.275
542.12;36.500
542.70;29.175
543.28;36.200
543.86;28.475
544.43;28.800
545.01;28.775
545.59;22.400
546.17;29.775
546.75;22.400
547.33;26.775
547.90;30.600
548.48;26.175
549.06;19.300
549.64;36.475
550.22;33.100
550.79;23.575
551.37;22.100
551.95;24.275
552.53;37.900
553.11;38.175
553.68;35.200
554.26;38.075
554.84;45.200
555.42;55.975
555.99;60.100
556.57;57.675
557.15;65.900
557.73;43.675
558.30;38.300
558.88;54.575
559.46;62.600
560.04;48.775
560.61;52.800
561.19;56.275
561.77;65.800
562.35;59.275
562.92;59.400
563.50;73.075
564.08;92.200
564.65;104.07
565.23;121.30
565.81;130.98
566.38;119.90
566.96;105.78
567.54;98.700
568.11;118.57
568.69;124.30
569.27;114.38
569.84;132.80
570.42;128.18
571.00;143.20
571.57;161.18
572.15;160.70
572.73;180.27
573.30;203.10
573.88;240.27
574.46;338.20
575.03;454.48
575.61;519.80
576.18;526.47
576.76;488.80
577.34;419.88
577.91;317.50
578.49;319.98
579.07;351.20
579.64;406.27
580.22;482.80
580.79;558.97
581.37;633.40
581.94;722.08
582.52;959.60
583.10;3353.1
583.67;9900.3
584.25;13434
584.82;14264
585.40;13863
585.97;11398
586.55;5432.0
587.12;2387.3
587.70;2280.3
588.28;2138.0
588.85;1817.1
589.43;1176.4
590.00;748.97
590.58;680.70
591.15;619.97
591.73;586.30
592.30;930.47
592.88;2097.4
593.45;2814.8
594.03;3095.3
594.60;2995.7
595.18;2433.8
595.75;1564.3
596.33;1079.1
596.90;1139.0
597.48;1105.6
598.05;968.17
598.63;700.90
599.20;422.58
599.77;394.50
600.35;355.98
600.92;534.50
601.50;832.08
602.07;1020.1
602.65;1055.5
603.22;1014.1
603.79;842.47
604.37;524.40
604.94;511.98
605.52;1434.7
606.09;2464.9
606.67;2958.0
607.24;3333.4
607.81;4622.3
608.39;5046.8
608.96;4430.5
609.54;4180.1
610.11;3624.8
610.68;2310.5
611.26;852.30
611.83;920.08
612.40;2838.8
612.98;4754.1
613.55;5685.1
614.12;6049.3
614.70;6154.9
615.27;5006.7
615.84;2819.4
616.42;2246.3
616.99;1880.2
617.56;1137.6
618.14;577.30
618.71;500.77
619.28;536.50
619.86;986.47
620.43;1416.4
621.00;1611.0
621.58;1625.0
622.15;1470.7
622.72;1086.8
623.30;539.17
623.87;489.90
624.44;1004.2
625.01;2436.5
625.59;3305.8
626.16;3667.0
626.73;3550.1
627.30;3004.7
627.88;1695.5
628.45;963.80
629.02;1426.7
629.59;1714.5
630.17;1845.1
630.74;1856.3
631.31;2386.1
631.88;3496.1
632.46;4185.2
633.03;4484.7
633.60;4257.2
634.17;3428.6
634.74;1727.5
635.32;719.20
635.89;969.88
636.46;2872.4
637.03;4486.0
637.60;5451.4
638.18;8036.5
638.75;10794
639.32;11007
639.89;9533.8
640.46;8623.4
641.03;6593.9
641.61;2498.1
642.18;783.60
642.75;620.88
643.32;562.10
643.89;524.88
644.46;504.50
645.03;490.77
645.60;460.90
646.18;440.48
646.75;448.10
647.32;478.48
647.89;623.00
648.46;1702.5
649.03;4317.5
649.60;5800.3
650.17;6369.6
650.74;6271.3
651.31;5913.7
651.89;4303.0
652.46;2485.9
653.03;2399.1
653.60;2183.6
654.17;1694.7
654.74;791.50
655.31;425.38
655.88;387.80
656.45;389.88
657.02;425.00
657.59;773.78
658.16;2156.9
658.73;3049.8
659.30;3462.7
659.87;3423.1
660.44;2951.8
661.01;1847.0
661.58;526.40
662.15;346.67
662.72;328.00
663.29;336.48
663.86;344.60
664.43;376.98
665.00;474.60
665.57;1383.2
666.14;4053.4
666.71;5645.9
667.28;6349.0
667.85;6264.0
668.42;5488.7
668.99;3536.3
669.56;1893.1
670.13;2961.4
670.70;3656.1
671.27;3894.6
671.84;3872.4
672.41;3365.9
672.98;2196.8
673.54;1219.1
674.11;1079.9
674.68;1036.1
675.25;990.10
675.82;984.88
676.39;949.80
676.96;835.88
677.53;732.10
678.10;653.58
678.67;622.60
679.23;592.47
679.80;522.10
680.37;479.98
680.94;441.00
681.51;372.67
682.08;325.00
682.65;294.67
683.21;265.50
683.78;254.88
684.35;238.80
684.92;202.68
685.49;197.40
686.06;164.88
686.62;158.60
687.19;149.38
687.76;168.20
688.33;164.38
688.90;185.10
689.46;223.57
690.03;309.50
690.60;813.58
691.17;2474.2
691.74;3824.4
692.30;4674.2
692.87;4953.1
693.44;4664.4
694.01;3674.5
694.57;1948.4
695.14;1305.9
695.71;1133.6
696.28;1011.5
696.84;1022.1
697.41;996.28
697.98;886.00
698.55;781.88
699.11;767.40
699.68;830.28
700.25;987.20
700.82;1607.2
701.38;4752.3
701.95;7155.6
702.52;8395.4
703.08;8729.6
703.65;7973.3
704.22;6142.0
704.78;2364.3
705.35;1081.2
705.92;940.80
706.48;821.38
707.05;641.40
707.62;499.88
708.18;451.30
708.75;400.88
709.32;339.70
709.88;293.08
710.45;248.10
711.02;210.48
711.58;198.90
712.15;189.18
712.72;172.80
713.28;173.57
713.85;164.50
714.41;184.77
714.98;288.10
715.55;613.38
716.11;843.20
716.68;935.38
717.24;922.70
717.81;830.17
718.38;623.80
718.94;219.98
719.51;129.60
720.07;113.88
720.64;130.00
721.20;160.98
721.77;252.80
722.33;1197.5
722.90;2484.8
723.47;3150.0
724.03;3412.5
724.60;3335.8
725.16;2811.1
725.73;1678.9
726.29;271.90
726.86;152.38
727.42;119.80
727.99;99.375
728.55;119.60
729.12;106.97
729.68;100.000
730.25;90.275
730.81;80.300
731.38;73.075
731.94;67.000
732.51;52.875
733.07;66.000
733.64;60.775
734.20;65.000
734.76;62.775
735.33;63.100
735.89;59.775
736.46;68.500
737.02;38.575
737.59;48.400
738.15;46.275
738.72;62.500
739.28;48.375
739.84;59.000
740.41;59.275
740.97;71.500
741.54;200.88
742.10;504.90
742.66;696.47
743.23;770.00
743.79;777.08
744.35;695.90
744.92;511.67
745.48;161.20
746.05;105.47
746.61;186.60
747.17;350.88
747.74;433.50
748.30;450.98
748.86;415.20
749.43;363.08
749.99;266.50
750.55;72.475
751.12;102.90
751.68;246.18
752.24;378.00
752.81;460.58
753.37;486.10
753.93;455.67
754.50;398.20
755.06;200.18
755.62;93.600
756.18;39.875
756.75;23.100
757.31;31.375
757.87;29.900
758.44;31.775
759.00;26.700
759.56;21.175
760.12;14.300
760.69;23.775
761.25;25.900
761.81;18.975
762.37;16.400
762.94;16.475
763.50;25.700
764.06;12.175
764.62;18.600
765.18;16.075
765.75;8.0000
766.31;15.175
766.87;19.100
767.43;14.375
767.99;13.200
768.56;13.275
769.12;9.9000
769.68;18.875
770.24;17.100
770.80;0.8750
771.36;8.9000
771.93;3.9750
772.49;18.400
773.05;9.6750
773.61;7.6000
774.17;6.2750
774.73;5.4000
775.29;21.275
775.86;13.600
776.42;6.0750
776.98;12.600
777.54;11.275
778.10;-2.0000
778.66;4.5750
779.22;25.400
779.78;-3.5250
780.34;3.7000
780.91;1.5750
781.47;13.000
782.03;7.4750
782.59;9.9000
783.15;12.575
783.71;6.3000
784.27;6.8750
784.83;12.900
785.39;8.7750
785.95;5.4000
786.51;7.1750
787.07;-0.6000
787.63;6.7750
788.19;10.700
788.75;1.2750
789.31;1.4000
789.87;-4.1250
790.43;6.9000
790.99;7.0750
791.55;12.700
792.11;36.275
792.67;53.500
793.23;44.175
793.79;57.100
794.35;51.775
794.91;53.600
795.47;29.775
796.03;3.8000
796.59;7.6750
797.15;10.200
797.71;4.8750
798.27;6.8000
798.83;8.1750
799.39;7.6000
799.95;0.2750
800.51;3.4000
801.07;1.2750
801.63;6.6000
802.19;-2.4250
802.75;7.2000
803.30;3.8750
803.86;3.8000
804.42;10.275
804.98;5.2000
805.54;6.9750
806.10;13.400
806.66;15.975
807.22;23.400
807.78;14.075
808.33;14.300
808.89;16.775
809.45;21.100
810.01;13.675
810.57;27.700
811.13;35.375
811.69;71.700
812.24;90.675
812.80;103.60
813.36;92.775
813.92;74.300
814.48;58.575
815.03;36.700
815.59;7.8750
816.15;-1.8000
816.71;6.0750
817.27;4.1000
817.82;7.5750
818.38;15.000
818.94;6.8750
819.50;11.500
820.06;-7.3250
820.61;14.100
821.17;9.3750
821.73;7.3000
822.29;9.2750
822.84;5.3000
823.40;6.2750
823.96;27.100
824.52;38.475
825.07;41.200
825.63;55.075
826.19;57.200
826.74;57.975
827.30;59.300
827.86;93.175
828.42;127.90
828.97;141.18
829.53;149.70
830.09;145.48
830.64;129.20
831.20;97.375
831.76;19.700
832.31;5.6750
832.87;16.600
833.43;21.875
833.98;25.200
834.54;46.175
835.10;118.10
835.65;412.08
836.21;585.10
836.77;638.97
837.32;665.50
837.88;642.47
838.43;581.30
838.99;352.67
839.55;99.100
840.10;125.18
840.66;135.70
841.21;132.07
841.77;128.00
842.33;127.47
842.88;94.100
843.44;36.675
843.99;21.500
844.55;32.775
845.11;35.600
845.66;33.175
846.22;56.400
846.77;65.975
847.33;204.00
847.88;307.27
848.44;352.80
848.99;376.67
849.55;370.70
850.10;328.38
850.66;254.50
851.21;68.175
851.77;25.500
852.32;31.875
852.88;11.300
853.43;25.775
853.99;26.900
854.54;27.675
855.10;26.300
855.65;29.875
856.21;44.200
856.76;83.975
857.32;142.60
857.87;154.18
858.43;188.00
858.98;165.18
859.54;155.30
860.09;136.07
860.64;66.200
861.20;89.275
861.75;112.40
862.31;157.38
862.86;220.30
863.41;363.98
863.97;416.00
864.52;417.77
865.08;366.70
865.63;357.58
866.18;348.30
866.74;251.68
867.29;133.30
867.85;114.88
868.40;115.40
868.95;104.88
869.51;55.000
870.06;28.075
870.61;26.800
871.17;25.175
871.72;12.400
872.27;14.375
872.83;5.9000
873.38;11.375
873.93;20.800
874.49;22.475
875.04;55.000
875.59;122.68
876.15;287.60
876.70;376.58
877.25;405.40
877.80;422.77
878.36;414.20
878.91;353.98
879.46;188.70
880.02;46.975
880.57;25.800
881.12;16.475
881.67;14.600
882.23;20.575
882.78;30.500
883.33;72.175
883.88;90.100
884.44;139.57
884.99;160.50
885.54;168.27
886.09;150.40
886.64;115.68
887.20;72.700
887.75;50.575
888.30;23.000
888.85;9.8750
889.40;7.2000
889.96;21.375
890.51;24.500
891.06;24.275
891.61;32.800
892.16;28.375
892.71;26.100
893.27;10.675
893.82;6.3000
894.37;7.4750
894.92;-3.9000
895.47;3.4750
896.02;5.2000
896.57;7.8750
897.13;13.500
897.68;5.5750
898.23;8.3000
898.78;6.1750
899.33;7.6000
899.88;16.275
900.43;14.400
900.98;5.4750
901.53;-5.5000
902.08;2.0750
902.63;3.1000
903.19;-0.3250
903.74;-3.1000
904.29;-9.2250
904.84;12.800
905.39;0.2750
905.94;1.4000
906.49;-0.6250
907.04;0.3000
907.59;11.875
908.14;2.4000
908.69;4.4750
909.24;9.1000
909.79;-1.4250
910.34;0.1000
910.89;-2.4250
911.44;1.8000
911.99;-7.4250
912.54;9.5000
913.09;20.575
913.64;30.900
914.19;32.075
914.74;29.800
915.29;24.575
915.84;25.500
916.39;9.5750
916.94;4.7000
917.49;4.6750
918.04;22.900
918.58;16.275
919.13;22.600
919.68;36.375
920.23;40.000
920.78;51.975
921.33;38.200
921.88;24.775
922.43;28.000
922.98;20.075
923.53;16.300
924.08;-3.0250
924.62;-0.4000
925.17;1.0750
925.72;-3.6000
926.27;2.7750
926.82;9.0000
927.37;5.6750
927.92;7.5000
928.46;18.475
929.01;27.300
929.56;29.975
930.11;26.300
930.66;35.075
931.21;41.200
931.75;32.775
932.30;24.600
932.85;20.575
933.40;11.000
933.95;8.1750
934.49;2.6000
935.04;-6.5250
935.59;6.8000
936.14;1.0750
936.69;-1.3000
937.23;-1.3250
937.78;1.4000
938.33;5.4750
938.88;3.7000
939.42;-5.7250
939.97;8.9000
940.52;1.7750
941.07;8.6000
941.61;12.075
942.16;9.2000
942.71;11.175
943.25;14.100
943.80;-2.4250
944.35;13.200
944.90;0.8750
945.44;0.4000
945.99;4.9750
946.54;11.400
947.08;23.675
947.63;12.700
948.18;11.275
948.72;11.300
949.27;12.975
949.82;20.500
950.36;11.475
950.91;4.3000
951.46;7.0750
952.00;14.900
952.55;11.575
953.09;23.100
953.64;17.475
954.19;12.000
954.73;9.1750
955.28;6.8000
955.82;14.075
956.37;1.1000
956.92;2.3750
957.46;-1.2000
958.01;3.3750
958.55;5.9000
959.10;1.1750
959.65;7.3000
960.19;0.5750
960.74;2.3000
961.28;-11.625
961.83;6.0000
962.37;-4.8250
962.92;3.2000
963.46;0.2750
964.01;5.7000
964.55;12.575
965.10;20.400
965.64;11.075
966.19;10.500
966.73;11.575
967.28;20.900
967.82;12.475
968.37;1.6000
968.91;-1.8250
969.46;3.6000
970.00;0.8750
970.55;6.1000
971.09;1.0750
971.64;-2.7000
972.18;9.4750
972.73;-5.3000
973.27;-7.0250
973.82;-3.3000
974.36;0.3750
974.90;4.5000
975.45;-5.4250
975.99;5.8000
976.54;-2.8250
977.08;5.2000
977.62;-2.5250
978.17;2.5000
978.71;-8.2250
979.26;-2.8000
979.80;-0.3250
980.34;-7.2000
980.89;-2.5250
981.43;-8.7000
981.97;-9.9250
982.52;5.0000
983.06;0.1750
983.61;-5.9000
984.15;-1.1250
984.69;3.8000
985.24;4.0750
985.78;0.2000
986.32;1.8750
986.87;-0.6000
987.41;-10.225
987.95;-3.5000
988.49;1.0750
989.04;-7.9000
989.58;-2.0250
990.12;-10.800
990.67;-9.5250
991.21;2.3000
991.75;1.3750
992.29;-5.9000
992.84;-2.8250
993.38;-8.7000
993.92;1.2750
994.46;7.4000
995.01;-2.9250
995.55;-5.1000
996.09;-4.3250
996.63;-10.200
997.18;-2.2250
997.72;-2.7000
998.26;-3.9250
998.80;-3.5000
999.34;-0.9250
999.89;-3.2000
1000.43;7.8750
1000.97;0.3000
1001.51;2.6750
1002.05;2.2000
1002.60;4.1750
1003.14;0.2000
1003.68;-4.7250
1004.22;3.2000
1004.76;-2.9250
1005.30;0.8000
1005.84;-4.7250
1006.39;-1.8000
1006.93;-6.4250
1007.47;2.0000
1008.01;-4.7250
1008.55;-6.4000
1009.09;1.7750
1009.63;-1.0000
1010.17;-9.3250
1010.72;-3.3000
1011.26;-5.4250
1011.80;2.6000
1012.34;1.4750
1012.88;-5.3000
1013.42;-4.3250
1013.96;-12.800
1014.50;3.3750
1015.04;-1.5000
1015.58;-3.6250
1016.12;6.7000
1016.66;-4.2250
1017.20;-3.2000
1017.74;3.5750
1018.28;-6.0000
1018.82;-1.7250
1019.36;1.1000
1019.90;-6.4250
1020.44;2.3000
1020.98;4.8750
1021.52;1.2000
1022.06;0.7750
1022.60;3.7000
1023.14;0.1750
1023.68;-5.0000
1024.22;3.2750
1024.76;4.2000
1025.30;1.4750
1025.84;-3.1000
1026.38;-4.6250
1026.92;2.4000
1027.46;-2.4250
1028.00;1.5000
1028.54;-5.1250
1029.08;1.8000
1029.62;0.8750
1030.16;1.6000
1030.70;0.2750
1031.23;0.5000
1031.77;-8.8250
1032.31;-1.5000
1032.85;0.8750
1033.39;-2.0000
1033.93;1.7750
1034.47;-1.1000
1035.01;-10.225
1035.54;13.400
1036.08;-1.1250
1036.62;-3.3000
1037.16;2.7750
1037.70;-7.5000
1038.24;-3.9250
1038.78;-7.7000
1039.31;4.6750
1039.85;5.3000
1040.39;-8.0250
1040.93;-2.2000
1041.47;-7.1250
1042.00;1.9000
1042.54;3.0750
1043.08;-3.9000
1043.62;-13.525
1044.16;1.1000
1044.69;-2.8250
1045.23;-13.900
1045.77;-6.3250
1046.31;-13.700
1046.84;3.1750
1047.38;3.5000
1047.92;-6.5250
1048.46;-1.9000
1048.99;-9.7250
1049.53;-5.0000
1050.07;-7.0250
1050.61;-7.6000
1051.14;-5.0250
1051.68;-0.3000
1052.22;-14.225
1052.75;-3.7000
1053.29;1.8750
1053.83;-6.9000
1054.36;0.2750
1054.90;-7.5000
1055.44;-8.1250
1055.97;-0.5000
1056.51;-9.8250
1057.05;5.5000
1057.58;2.4750
1058.12;0.6000
1058.66;-2.7250
1059.19;-7.8000
1059.73;-8.7250
1060.27;1.2000
1060.80;-4.4250
1061.34;-2.7000
1061.87;1.8750
1062.41;-2.7000
1062.95;-4.7250
1063.48;-1.6000
1064.02;-5.8250
1064.55;-5.6000
1065.09;-1.2250
1065.63;1.3000
1066.16;-9.8250
1066.70;-1.5000
1067.23;-4.7250
1067.77;-7.7000
1068.30;-7.0250
1068.84;4.2000
1069.37;-6.7250
1069.91;-7.5000
1070.44;3.3750
1070.98;-0.8000
1071.52;-1.1250
1072.05;3.8000
1072.59;4.6750
1073.12;-7.6000
1073.66;-0.3250
1074.19;-3.3000
1074.73;1.3750
1075.26;-2.1000
1075.79;-9.3250
1076.33;-4.9000
1076.86;-6.3250
1077.40;4.0000
1077.93;0.9750
1078.47;-3.1000
1079.00;-4.4250
1079.54;-3.5000
1080.07;5.6750
1080.60;-0.7000
1081.14;-5.8250
1081.67;4.1000
1082.21;11.075
1082.74;-4.4000
1083.28;0.6750
1083.81;1.4000
1084.34;-5.4250
1084.88;-8.1000
1085.41;-0.3250
1085.94;6.4000
1086.48;-5.6250
1087.01;-4.8000
1087.55;-1.6250
1088.08;3.3000
1088.61;-0.5250
1089.15;0.6000
1089.68;-2.0250
1090.21;-11.300
1090.75;5.7750
1091.28;-0.1000
1091.81;-2.8250
1092.35;-4.7000
1092.88;-8.1250
1093.41;-2.1000
1093.94;-7.4250
1094.48;0.6000
1095.01;-2.1250
1095.54;-9.8000
1096.08;-4.8250
1096.61;-0.8000
1097.14;4.1750
1097.67;-9.5000
1098.21;-9.3250
1098.74;-5.3000
1099.27;-1.8250
1099.80;-5.9000
1100.34;-0.7250
